Sample	äwê∂é¿å±3TM_NH3	
Comments	 	
Filename	C:\Users\User1\Desktop\DATA\äwê∂é¿å±3TM\äwê∂é¿å±3TM_NH3_2É∆_É∆.raw	
Goniometer	MiniFlex 300/600 +	
Attachment	âÒì]ééóøë‰	
Monochromater	None	
X	0	
Y	0	
Z	0	
ScanningMode	2Theta/Theta	
ScanningType	Continuos Scanning	
X-Ray	40kV/15mA	
IHS	5.0mm	
DS	1.250deg	
SS	13.0mm(Open)	
RS	13.0mm(Open)	
K-beta(x1)		
Start	20	
Stop	80	
Step	0.01	
Speed	1	
Offset	0	10539
20	858	268.1411899
20.01	866	268.2170984
20.02	833	267.9039757
20.03	817	267.7521586
20.04	849	268.0557928
20.05	853	268.093747
20.06	848	268.0463042
20.07	855	268.1127242
20.08	818	267.7616472
20.09	817	267.7521586
20.1	818	267.7616472
20.11	800	267.590853
20.12	801	267.6003416
20.13	820	267.7806243
20.14	820	267.7806243
20.15	821	267.7901129
20.16	833	267.9039757
20.17	843	267.9988614
20.18	831	267.8849986
20.19	808	267.6667616
20.2	802	267.6098302
20.21	809	267.6762501
20.22	827	267.8470443
20.23	829	267.8660214
20.24	812	267.7047158
20.25	830	267.87551
20.26	857	268.1317013
20.27	846	268.0273271
20.28	791	267.5054559
20.29	802	267.6098302
20.3	852	268.0842585
20.31	865	268.2076098
20.32	816	267.7426701
20.33	820	267.7806243
20.34	836	267.9324414
20.35	817	267.7521586
20.36	791	267.5054559
20.37	786	267.4580131
20.38	825	267.8280672
20.39	816	267.7426701
20.4	822	267.7996015
20.41	847	268.0368156
20.42	843	267.9988614
20.43	863	268.1886327
20.44	844	268.0083499
20.45	833	267.9039757
20.46	816	267.7426701
20.47	804	267.6288073
20.48	811	267.6952273
20.49	811	267.6952273
20.5	831	267.8849986
20.51	829	267.8660214
20.52	833	267.9039757
20.53	851	268.0747699
20.54	850	268.0652813
20.55	832	267.8944871
20.56	811	267.6952273
20.57	795	267.5434102
20.58	796	267.5528988
20.59	831	267.8849986
20.6	848	268.0463042
20.61	842	267.9893728
20.62	836	267.9324414
20.63	828	267.8565329
20.64	847	268.0368156
20.65	853	268.093747
20.66	810	267.6857387
20.67	808	267.6667616
20.68	846	268.0273271
20.69	827	267.8470443
20.7	843	267.9988614
20.71	831	267.8849986
20.72	852	268.0842585
20.73	862	268.1791441
20.74	840	267.9703957
20.75	814	267.7236929
20.76	840	267.9703957
20.77	846	268.0273271
20.78	829	267.8660214
20.79	821	267.7901129
20.8	821	267.7901129
20.81	831	267.8849986
20.82	838	267.9514185
20.83	846	268.0273271
20.84	838	267.9514185
20.85	800	267.590853
20.86	816	267.7426701
20.87	806	267.6477844
20.88	825	267.8280672
20.89	827	267.8470443
20.9	828	267.8565329
20.91	853	268.093747
20.92	846	268.0273271
20.93	851	268.0747699
20.94	846	268.0273271
20.95	812	267.7047158
20.96	814	267.7236929
20.97	815	267.7331815
20.98	808	267.6667616
20.99	821	267.7901129
21	830	267.87551
21.01	833	267.9039757
21.02	816	267.7426701
21.03	824	267.8185786
21.04	824	267.8185786
21.05	825	267.8280672
21.06	838	267.9514185
21.07	838	267.9514185
21.08	826	267.8375557
21.09	835	267.9229528
21.1	836	267.9324414
21.11	817	267.7521586
21.12	811	267.6952273
21.13	835	267.9229528
21.14	845	268.0178385
21.15	844	268.0083499
21.16	844	268.0083499
21.17	846	268.0273271
21.18	833	267.9039757
21.19	858	268.1411899
21.2	861	268.1696556
21.21	834	267.9134643
21.22	872	268.2740298
21.23	863	268.1886327
21.24	815	267.7331815
21.25	814	267.7236929
21.26	836	267.9324414
21.27	853	268.093747
21.28	844	268.0083499
21.29	840	267.9703957
21.3	817	267.7521586
21.31	846	268.0273271
21.32	833	267.9039757
21.33	809	267.6762501
21.34	821	267.7901129
21.35	872	268.2740298
21.36	858	268.1411899
21.37	826	267.8375557
21.38	824	267.8185786
21.39	840	267.9703957
21.4	843	267.9988614
21.41	810	267.6857387
21.42	799	267.5813645
21.43	827	267.8470443
21.44	860	268.160167
21.45	847	268.0368156
21.46	862	268.1791441
21.47	844	268.0083499
21.48	833	267.9039757
21.49	815	267.7331815
21.5	835	267.9229528
21.51	859	268.1506784
21.52	858	268.1411899
21.53	841	267.9798842
21.54	834	267.9134643
21.55	818	267.7616472
21.56	841	267.9798842
21.57	843	267.9988614
21.58	819	267.7711358
21.59	822	267.7996015
21.6	818	267.7616472
21.61	801	267.6003416
21.62	808	267.6667616
21.63	839	267.9609071
21.64	824	267.8185786
21.65	821	267.7901129
21.66	865	268.2076098
21.67	839	267.9609071
21.68	822	267.7996015
21.69	872	268.2740298
21.7	867	268.226587
21.71	827	267.8470443
21.72	843	267.9988614
21.73	854	268.1032356
21.74	866	268.2170984
21.75	886	268.4068697
21.76	881	268.3594269
21.77	855	268.1127242
21.78	828	267.8565329
21.79	872	268.2740298
21.8	892	268.4638011
21.81	854	268.1032356
21.82	841	267.9798842
21.83	829	267.8660214
21.84	848	268.0463042
21.85	861	268.1696556
21.86	876	268.3119841
21.87	842	267.9893728
21.88	788	267.4769902
21.89	805	267.6382959
21.9	833	267.9039757
21.91	850	268.0652813
21.92	857	268.1317013
21.93	861	268.1696556
21.94	838	267.9514185
21.95	847	268.0368156
21.96	855	268.1127242
21.97	849	268.0557928
21.98	831	267.8849986
21.99	845	268.0178385
22	837	267.94193
22.01	836	267.9324414
22.02	839	267.9609071
22.03	828	267.8565329
22.04	814	267.7236929
22.05	831	267.8849986
22.06	834	267.9134643
22.07	809	267.6762501
22.08	815	267.7331815
22.09	847	268.0368156
22.1	847	268.0368156
22.11	857	268.1317013
22.12	871	268.2645412
22.13	866	268.2170984
22.14	853	268.093747
22.15	850	268.0652813
22.16	842	267.9893728
22.17	840	267.9703957
22.18	852	268.0842585
22.19	861	268.1696556
22.2	840	267.9703957
22.21	834	267.9134643
22.22	851	268.0747699
22.23	845	268.0178385
22.24	831	267.8849986
22.25	861	268.1696556
22.26	844	268.0083499
22.27	813	267.7142044
22.28	809	267.6762501
22.29	841	267.9798842
22.3	835	267.9229528
22.31	834	267.9134643
22.32	853	268.093747
22.33	839	267.9609071
22.34	836	267.9324414
22.35	859	268.1506784
22.36	821	267.7901129
22.37	824	267.8185786
22.38	829	267.8660214
22.39	835	267.9229528
22.4	828	267.8565329
22.41	839	267.9609071
22.42	838	267.9514185
22.43	852	268.0842585
22.44	849	268.0557928
22.45	843	267.9988614
22.46	839	267.9609071
22.47	828	267.8565329
22.48	826	267.8375557
22.49	836	267.9324414
22.5	833	267.9039757
22.51	807	267.657273
22.52	827	267.8470443
22.53	838	267.9514185
22.54	824	267.8185786
22.55	847	268.0368156
22.56	854	268.1032356
22.57	798	267.5718759
22.58	782	267.4200588
22.59	816	267.7426701
22.6	838	267.9514185
22.61	850	268.0652813
22.62	856	268.1222127
22.63	872	268.2740298
22.64	866	268.2170984
22.65	842	267.9893728
22.66	856	268.1222127
22.67	841	267.9798842
22.68	842	267.9893728
22.69	827	267.8470443
22.7	826	267.8375557
22.71	795	267.5434102
22.72	828	267.8565329
22.73	829	267.8660214
22.74	811	267.6952273
22.75	851	268.0747699
22.76	854	268.1032356
22.77	840	267.9703957
22.78	868	268.2360755
22.79	870	268.2550527
22.8	853	268.093747
22.81	837	267.94193
22.82	839	267.9609071
22.83	839	267.9609071
22.84	822	267.7996015
22.85	853	268.093747
22.86	847	268.0368156
22.87	835	267.9229528
22.88	821	267.7901129
22.89	812	267.7047158
22.9	802	267.6098302
22.91	808	267.6667616
22.92	827	267.8470443
22.93	838	267.9514185
22.94	840	267.9703957
22.95	838	267.9514185
22.96	846	268.0273271
22.97	843	267.9988614
22.98	820	267.7806243
22.99	839	267.9609071
23	859	268.1506784
23.01	839	267.9609071
23.02	824	267.8185786
23.03	836	267.9324414
23.04	841	267.9798842
23.05	828	267.8565329
23.06	826	267.8375557
23.07	842	267.9893728
23.08	841	267.9798842
23.09	842	267.9893728
23.1	844	268.0083499
23.11	832	267.8944871
23.12	805	267.6382959
23.13	835	267.9229528
23.14	813	267.7142044
23.15	859	268.1506784
23.16	868	268.2360755
23.17	844	268.0083499
23.18	823	267.80909
23.19	813	267.7142044
23.2	833	267.9039757
23.21	849	268.0557928
23.22	841	267.9798842
23.23	836	267.9324414
23.24	829	267.8660214
23.25	851	268.0747699
23.26	855	268.1127242
23.27	846	268.0273271
23.28	809	267.6762501
23.29	843	267.9988614
23.3	866	268.2170984
23.31	835	267.9229528
23.32	849	268.0557928
23.33	826	267.8375557
23.34	818	267.7616472
23.35	859	268.1506784
23.36	842	267.9893728
23.37	852	268.0842585
23.38	840	267.9703957
23.39	818	267.7616472
23.4	852	268.0842585
23.41	838	267.9514185
23.42	831	267.8849986
23.43	829	267.8660214
23.44	881	268.3594269
23.45	876	268.3119841
23.46	866	268.2170984
23.47	844	268.0083499
23.48	823	267.80909
23.49	861	268.1696556
23.5	855	268.1127242
23.51	827	267.8470443
23.52	812	267.7047158
23.53	811	267.6952273
23.54	853	268.093747
23.55	853	268.093747
23.56	841	267.9798842
23.57	875	268.3024955
23.58	850	268.0652813
23.59	801	267.6003416
23.6	820	267.7806243
23.61	843	267.9988614
23.62	846	268.0273271
23.63	861	268.1696556
23.64	861	268.1696556
23.65	833	267.9039757
23.66	844	268.0083499
23.67	883	268.378404
23.68	875	268.3024955
23.69	849	268.0557928
23.7	851	268.0747699
23.71	862	268.1791441
23.72	866	268.2170984
23.73	870	268.2550527
23.74	850	268.0652813
23.75	855	268.1127242
23.76	882	268.3689155
23.77	881	268.3594269
23.78	840	267.9703957
23.79	829	267.8660214
23.8	835	267.9229528
23.81	816	267.7426701
23.82	807	267.657273
23.83	872	268.2740298
23.84	863	268.1886327
23.85	846	268.0273271
23.86	869	268.2455641
23.87	859	268.1506784
23.88	846	268.0273271
23.89	870	268.2550527
23.9	865	268.2076098
23.91	871	268.2645412
23.92	870	268.2550527
23.93	894	268.4827783
23.94	893	268.4732897
23.95	876	268.3119841
23.96	874	268.2930069
23.97	921	268.7389695
23.98	920	268.729481
23.99	862	268.1791441
24	873	268.2835184
24.01	872	268.2740298
24.02	896	268.5017554
24.03	945	268.9666951
24.04	999	269.4790777
24.05	1012	269.6024291
24.06	1089	270.3330487
24.07	1113	270.5607743
24.08	1198	271.3673024
24.09	1368	272.9803587
24.1	1588	275.0678432
24.11	1903	278.0567416
24.12	2343	282.2317108
24.13	2739	285.989183
24.14	3095	289.3671126
24.15	3178	290.1546636
24.16	2969	288.1715533
24.17	2653	285.1731663
24.18	2388	282.6586963
24.19	2272	281.5580226
24.2	2243	281.2828542
24.21	2041	279.3661638
24.22	1879	277.829016
24.23	1625	275.4189202
24.24	1384	273.1321757
24.25	1239	271.7563336
24.26	1063	270.086346
24.27	981	269.3082835
24.28	955	269.0615808
24.29	952	269.0331151
24.3	933	268.8528323
24.31	871	268.2645412
24.32	884	268.3878926
24.33	882	268.3689155
24.34	880	268.3499383
24.35	856	268.1222127
24.36	870	268.2550527
24.37	899	268.5302211
24.38	905	268.5871525
24.39	869	268.2455641
24.4	871	268.2645412
24.41	864	268.1981213
24.42	875	268.3024955
24.43	856	268.1222127
24.44	889	268.4353354
24.45	866	268.2170984
24.46	865	268.2076098
24.47	869	268.2455641
24.48	857	268.1317013
24.49	867	268.226587
24.5	827	267.8470443
24.51	856	268.1222127
24.52	841	267.9798842
24.53	848	268.0463042
24.54	859	268.1506784
24.55	871	268.2645412
24.56	856	268.1222127
24.57	858	268.1411899
24.58	875	268.3024955
24.59	854	268.1032356
24.6	834	267.9134643
24.61	869	268.2455641
24.62	852	268.0842585
24.63	822	267.7996015
24.64	805	267.6382959
24.65	849	268.0557928
24.66	857	268.1317013
24.67	869	268.2455641
24.68	822	267.7996015
24.69	828	267.8565329
24.7	846	268.0273271
24.71	810	267.6857387
24.72	834	267.9134643
24.73	884	268.3878926
24.74	850	268.0652813
24.75	860	268.160167
24.76	837	267.94193
24.77	832	267.8944871
24.78	828	267.8565329
24.79	835	267.9229528
24.8	878	268.3309612
24.81	855	268.1127242
24.82	854	268.1032356
24.83	848	268.0463042
24.84	850	268.0652813
24.85	862	268.1791441
24.86	876	268.3119841
24.87	860	268.160167
24.88	836	267.9324414
24.89	826	267.8375557
24.9	827	267.8470443
24.91	832	267.8944871
24.92	867	268.226587
24.93	839	267.9609071
24.94	837	267.94193
24.95	836	267.9324414
24.96	869	268.2455641
24.97	865	268.2076098
24.98	865	268.2076098
24.99	853	268.093747
25	843	267.9988614
25.01	832	267.8944871
25.02	862	268.1791441
25.03	856	268.1222127
25.04	833	267.9039757
25.05	860	268.160167
25.06	858	268.1411899
25.07	841	267.9798842
25.08	860	268.160167
25.09	836	267.9324414
25.1	846	268.0273271
25.11	828	267.8565329
25.12	834	267.9134643
25.13	806	267.6477844
25.14	847	268.0368156
25.15	850	268.0652813
25.16	862	268.1791441
25.17	811	267.6952273
25.18	848	268.0463042
25.19	875	268.3024955
25.2	828	267.8565329
25.21	847	268.0368156
25.22	877	268.3214726
25.23	827	267.8470443
25.24	829	267.8660214
25.25	843	267.9988614
25.26	852	268.0842585
25.27	862	268.1791441
25.28	802	267.6098302
25.29	817	267.7521586
25.3	854	268.1032356
25.31	835	267.9229528
25.32	870	268.2550527
25.33	836	267.9324414
25.34	836	267.9324414
25.35	842	267.9893728
25.36	892	268.4638011
25.37	885	268.3973812
25.38	865	268.2076098
25.39	839	267.9609071
25.4	826	267.8375557
25.41	834	267.9134643
25.42	869	268.2455641
25.43	859	268.1506784
25.44	822	267.7996015
25.45	827	267.8470443
25.46	840	267.9703957
25.47	858	268.1411899
25.48	865	268.2076098
25.49	816	267.7426701
25.5	812	267.7047158
25.51	839	267.9609071
25.52	833	267.9039757
25.53	849	268.0557928
25.54	849	268.0557928
25.55	883	268.378404
25.56	859	268.1506784
25.57	863	268.1886327
25.58	872	268.2740298
25.59	848	268.0463042
25.6	850	268.0652813
25.61	851	268.0747699
25.62	828	267.8565329
25.63	835	267.9229528
25.64	816	267.7426701
25.65	807	267.657273
25.66	829	267.8660214
25.67	830	267.87551
25.68	787	267.4675017
25.69	833	267.9039757
25.7	860	268.160167
25.71	876	268.3119841
25.72	853	268.093747
25.73	820	267.7806243
25.74	845	268.0178385
25.75	825	267.8280672
25.76	839	267.9609071
25.77	852	268.0842585
25.78	872	268.2740298
25.79	859	268.1506784
25.8	854	268.1032356
25.81	830	267.87551
25.82	830	267.87551
25.83	836	267.9324414
25.84	845	268.0178385
25.85	853	268.093747
25.86	834	267.9134643
25.87	860	268.160167
25.88	863	268.1886327
25.89	839	267.9609071
25.9	822	267.7996015
25.91	872	268.2740298
25.92	887	268.4163583
25.93	867	268.226587
25.94	883	268.378404
25.95	859	268.1506784
25.96	835	267.9229528
25.97	792	267.5149445
25.98	853	268.093747
25.99	829	267.8660214
26	799	267.5813645
26.01	851	268.0747699
26.02	826	267.8375557
26.03	876	268.3119841
26.04	876	268.3119841
26.05	863	268.1886327
26.06	833	267.9039757
26.07	816	267.7426701
26.08	819	267.7711358
26.09	826	267.8375557
26.1	825	267.8280672
26.11	832	267.8944871
26.12	851	268.0747699
26.13	852	268.0842585
26.14	877	268.3214726
26.15	831	267.8849986
26.16	832	267.8944871
26.17	865	268.2076098
26.18	840	267.9703957
26.19	827	267.8470443
26.2	844	268.0083499
26.21	844	268.0083499
26.22	846	268.0273271
26.23	826	267.8375557
26.24	815	267.7331815
26.25	880	268.3499383
26.26	871	268.2645412
26.27	830	267.87551
26.28	857	268.1317013
26.29	850	268.0652813
26.3	856	268.1222127
26.31	886	268.4068697
26.32	871	268.2645412
26.33	861	268.1696556
26.34	839	267.9609071
26.35	854	268.1032356
26.36	861	268.1696556
26.37	884	268.3878926
26.38	879	268.3404498
26.39	861	268.1696556
26.4	887	268.4163583
26.41	840	267.9703957
26.42	830	267.87551
26.43	840	267.9703957
26.44	858	268.1411899
26.45	832	267.8944871
26.46	839	267.9609071
26.47	844	268.0083499
26.48	859	268.1506784
26.49	850	268.0652813
26.5	839	267.9609071
26.51	859	268.1506784
26.52	859	268.1506784
26.53	790	267.4959674
26.54	814	267.7236929
26.55	874	268.2930069
26.56	868	268.2360755
26.57	864	268.1981213
26.58	832	267.8944871
26.59	834	267.9134643
26.6	845	268.0178385
26.61	878	268.3309612
26.62	904	268.5776639
26.63	879	268.3404498
26.64	849	268.0557928
26.65	814	267.7236929
26.66	827	267.8470443
26.67	885	268.3973812
26.68	882	268.3689155
26.69	894	268.4827783
26.7	852	268.0842585
26.71	839	267.9609071
26.72	843	267.9988614
26.73	836	267.9324414
26.74	851	268.0747699
26.75	862	268.1791441
26.76	851	268.0747699
26.77	856	268.1222127
26.78	913	268.663061
26.79	875	268.3024955
26.8	817	267.7521586
26.81	848	268.0463042
26.82	842	267.9893728
26.83	874	268.2930069
26.84	874	268.2930069
26.85	842	267.9893728
26.86	847	268.0368156
26.87	840	267.9703957
26.88	837	267.94193
26.89	854	268.1032356
26.9	856	268.1222127
26.91	884	268.3878926
26.92	871	268.2645412
26.93	848	268.0463042
26.94	830	267.87551
26.95	864	268.1981213
26.96	869	268.2455641
26.97	848	268.0463042
26.98	849	268.0557928
26.99	891	268.4543126
27	823	267.80909
27.01	863	268.1886327
27.02	843	267.9988614
27.03	866	268.2170984
27.04	878	268.3309612
27.05	810	267.6857387
27.06	800	267.590853
27.07	851	268.0747699
27.08	876	268.3119841
27.09	886	268.4068697
27.1	858	268.1411899
27.11	859	268.1506784
27.12	877	268.3214726
27.13	838	267.9514185
27.14	808	267.6667616
27.15	851	268.0747699
27.16	871	268.2645412
27.17	879	268.3404498
27.18	895	268.4922668
27.19	873	268.2835184
27.2	837	267.94193
27.21	843	267.9988614
27.22	822	267.7996015
27.23	877	268.3214726
27.24	915	268.6820381
27.25	892	268.4638011
27.26	871	268.2645412
27.27	855	268.1127242
27.28	849	268.0557928
27.29	823	267.80909
27.3	845	268.0178385
27.31	878	268.3309612
27.32	852	268.0842585
27.33	820	267.7806243
27.34	857	268.1317013
27.35	898	268.5207325
27.36	876	268.3119841
27.37	833	267.9039757
27.38	875	268.3024955
27.39	874	268.2930069
27.4	842	267.9893728
27.41	902	268.5586868
27.42	914	268.6725496
27.43	873	268.2835184
27.44	832	267.8944871
27.45	849	268.0557928
27.46	875	268.3024955
27.47	854	268.1032356
27.48	855	268.1127242
27.49	853	268.093747
27.5	855	268.1127242
27.51	851	268.0747699
27.52	834	267.9134643
27.53	856	268.1222127
27.54	836	267.9324414
27.55	833	267.9039757
27.56	862	268.1791441
27.57	836	267.9324414
27.58	869	268.2455641
27.59	879	268.3404498
27.6	852	268.0842585
27.61	826	267.8375557
27.62	827	267.8470443
27.63	818	267.7616472
27.64	847	268.0368156
27.65	836	267.9324414
27.66	870	268.2550527
27.67	853	268.093747
27.68	855	268.1127242
27.69	858	268.1411899
27.7	851	268.0747699
27.71	850	268.0652813
27.72	819	267.7711358
27.73	852	268.0842585
27.74	861	268.1696556
27.75	840	267.9703957
27.76	842	267.9893728
27.77	865	268.2076098
27.78	892	268.4638011
27.79	862	268.1791441
27.8	867	268.226587
27.81	847	268.0368156
27.82	868	268.2360755
27.83	860	268.160167
27.84	831	267.8849986
27.85	848	268.0463042
27.86	883	268.378404
27.87	894	268.4827783
27.88	833	267.9039757
27.89	827	267.8470443
27.9	854	268.1032356
27.91	848	268.0463042
27.92	845	268.0178385
27.93	874	268.2930069
27.94	873	268.2835184
27.95	837	267.94193
27.96	810	267.6857387
27.97	849	268.0557928
27.98	864	268.1981213
27.99	878	268.3309612
28	845	268.0178385
28.01	815	267.7331815
28.02	847	268.0368156
28.03	893	268.4732897
28.04	883	268.378404
28.05	890	268.444824
28.06	889	268.4353354
28.07	857	268.1317013
28.08	833	267.9039757
28.09	818	267.7616472
28.1	820	267.7806243
28.11	833	267.9039757
28.12	857	268.1317013
28.13	874	268.2930069
28.14	832	267.8944871
28.15	828	267.8565329
28.16	861	268.1696556
28.17	853	268.093747
28.18	846	268.0273271
28.19	842	267.9893728
28.2	836	267.9324414
28.21	827	267.8470443
28.22	885	268.3973812
28.23	892	268.4638011
28.24	839	267.9609071
28.25	836	267.9324414
28.26	849	268.0557928
28.27	874	268.2930069
28.28	874	268.2930069
28.29	885	268.3973812
28.3	870	268.2550527
28.31	904	268.5776639
28.32	884	268.3878926
28.33	870	268.2550527
28.34	846	268.0273271
28.35	859	268.1506784
28.36	880	268.3499383
28.37	849	268.0557928
28.38	833	267.9039757
28.39	859	268.1506784
28.4	864	268.1981213
28.41	867	268.226587
28.42	862	268.1791441
28.43	842	267.9893728
28.44	814	267.7236929
28.45	840	267.9703957
28.46	851	268.0747699
28.47	864	268.1981213
28.48	879	268.3404498
28.49	875	268.3024955
28.5	887	268.4163583
28.51	878	268.3309612
28.52	860	268.160167
28.53	844	268.0083499
28.54	826	267.8375557
28.55	848	268.0463042
28.56	860	268.160167
28.57	876	268.3119841
28.58	875	268.3024955
28.59	877	268.3214726
28.6	866	268.2170984
28.61	880	268.3499383
28.62	881	268.3594269
28.63	865	268.2076098
28.64	878	268.3309612
28.65	861	268.1696556
28.66	824	267.8185786
28.67	815	267.7331815
28.68	852	268.0842585
28.69	882	268.3689155
28.7	866	268.2170984
28.71	834	267.9134643
28.72	856	268.1222127
28.73	847	268.0368156
28.74	847	268.0368156
28.75	864	268.1981213
28.76	881	268.3594269
28.77	872	268.2740298
28.78	870	268.2550527
28.79	894	268.4827783
28.8	908	268.6156182
28.81	878	268.3309612
28.82	848	268.0463042
28.83	859	268.1506784
28.84	845	268.0178385
28.85	833	267.9039757
28.86	864	268.1981213
28.87	843	267.9988614
28.88	866	268.2170984
28.89	880	268.3499383
28.9	903	268.5681753
28.91	869	268.2455641
28.92	868	268.2360755
28.93	877	268.3214726
28.94	881	268.3594269
28.95	870	268.2550527
28.96	865	268.2076098
28.97	837	267.94193
28.98	838	267.9514185
28.99	846	268.0273271
29	854	268.1032356
29.01	873	268.2835184
29.02	868	268.2360755
29.03	838	267.9514185
29.04	860	268.160167
29.05	867	268.226587
29.06	873	268.2835184
29.07	851	268.0747699
29.08	862	268.1791441
29.09	862	268.1791441
29.1	877	268.3214726
29.11	871	268.2645412
29.12	867	268.226587
29.13	860	268.160167
29.14	867	268.226587
29.15	866	268.2170984
29.16	880	268.3499383
29.17	872	268.2740298
29.18	895	268.4922668
29.19	899	268.5302211
29.2	882	268.3689155
29.21	871	268.2645412
29.22	887	268.4163583
29.23	901	268.5491982
29.24	876	268.3119841
29.25	855	268.1127242
29.26	865	268.2076098
29.27	856	268.1222127
29.28	847	268.0368156
29.29	832	267.8944871
29.3	873	268.2835184
29.31	894	268.4827783
29.32	882	268.3689155
29.33	889	268.4353354
29.34	899	268.5302211
29.35	879	268.3404498
29.36	889	268.4353354
29.37	901	268.5491982
29.38	900	268.5397096
29.39	883	268.378404
29.4	876	268.3119841
29.41	878	268.3309612
29.42	865	268.2076098
29.43	870	268.2550527
29.44	887	268.4163583
29.45	877	268.3214726
29.46	851	268.0747699
29.47	827	267.8470443
29.48	869	268.2455641
29.49	891	268.4543126
29.5	892	268.4638011
29.51	877	268.3214726
29.52	868	268.2360755
29.53	881	268.3594269
29.54	887	268.4163583
29.55	873	268.2835184
29.56	878	268.3309612
29.57	858	268.1411899
29.58	862	268.1791441
29.59	876	268.3119841
29.6	900	268.5397096
29.61	899	268.5302211
29.62	863	268.1886327
29.63	849	268.0557928
29.64	865	268.2076098
29.65	886	268.4068697
29.66	882	268.3689155
29.67	871	268.2645412
29.68	886	268.4068697
29.69	902	268.5586868
29.7	884	268.3878926
29.71	887	268.4163583
29.72	906	268.596641
29.73	912	268.6535724
29.74	847	268.0368156
29.75	840	267.9703957
29.76	860	268.160167
29.77	841	267.9798842
29.78	842	267.9893728
29.79	869	268.2455641
29.8	863	268.1886327
29.81	864	268.1981213
29.82	852	268.0842585
29.83	865	268.2076098
29.84	911	268.6440839
29.85	929	268.8148781
29.86	927	268.7959009
29.87	955	269.0615808
29.88	978	269.2798178
29.89	984	269.3367492
29.9	969	269.1944207
29.91	943	268.947718
29.92	925	268.7769238
29.93	905	268.5871525
29.94	884	268.3878926
29.95	870	268.2550527
29.96	848	268.0463042
29.97	862	268.1791441
29.98	870	268.2550527
29.99	880	268.3499383
30	869	268.2455641
30.01	838	267.9514185
30.02	853	268.093747
30.03	848	268.0463042
30.04	857	268.1317013
30.05	859	268.1506784
30.06	858	268.1411899
30.07	876	268.3119841
30.08	880	268.3499383
30.09	876	268.3119841
30.1	877	268.3214726
30.11	883	268.378404
30.12	893	268.4732897
30.13	888	268.4258469
30.14	892	268.4638011
30.15	887	268.4163583
30.16	919	268.7199924
30.17	937	268.8907866
30.18	918	268.7105038
30.19	900	268.5397096
30.2	890	268.444824
30.21	927	268.7959009
30.22	954	269.0520922
30.23	992	269.4126577
30.24	1032	269.7922004
30.25	1110	270.5323086
30.26	1251	271.8701964
30.27	1377	273.0657558
30.28	1445	273.7109783
30.29	1490	274.1379638
30.3	1508	274.3087579
30.31	1446	273.7204668
30.32	1361	272.9139387
30.33	1297	272.3066705
30.34	1282	272.164342
30.35	1255	271.9081507
30.36	1203	271.4147452
30.37	1204	271.4242338
30.38	1214	271.5191195
30.39	1157	270.9782712
30.4	1072	270.171743
30.41	1003	269.517032
30.42	944	268.9572066
30.43	927	268.7959009
30.44	942	268.9382294
30.45	940	268.9192523
30.46	912	268.6535724
30.47	890	268.444824
30.48	872	268.2740298
30.49	887	268.4163583
30.5	907	268.6061296
30.51	904	268.5776639
30.52	883	268.378404
30.53	858	268.1411899
30.54	848	268.0463042
30.55	858	268.1411899
30.56	863	268.1886327
30.57	847	268.0368156
30.58	845	268.0178385
30.59	840	267.9703957
30.6	866	268.2170984
30.61	875	268.3024955
30.62	871	268.2645412
30.63	881	268.3594269
30.64	876	268.3119841
30.65	871	268.2645412
30.66	889	268.4353354
30.67	901	268.5491982
30.68	890	268.444824
30.69	881	268.3594269
30.7	880	268.3499383
30.71	895	268.4922668
30.72	873	268.2835184
30.73	849	268.0557928
30.74	852	268.0842585
30.75	880	268.3499383
30.76	878	268.3309612
30.77	916	268.6915267
30.78	904	268.5776639
30.79	892	268.4638011
30.8	879	268.3404498
30.81	899	268.5302211
30.82	895	268.4922668
30.83	904	268.5776639
30.84	898	268.5207325
30.85	890	268.444824
30.86	874	268.2930069
30.87	857	268.1317013
30.88	846	268.0273271
30.89	851	268.0747699
30.9	859	268.1506784
30.91	887	268.4163583
30.92	910	268.6345953
30.93	903	268.5681753
30.94	896	268.5017554
30.95	870	268.2550527
30.96	866	268.2170984
30.97	880	268.3499383
30.98	861	268.1696556
30.99	886	268.4068697
31	883	268.378404
31.01	868	268.2360755
31.02	854	268.1032356
31.03	830	267.87551
31.04	844	268.0083499
31.05	878	268.3309612
31.06	886	268.4068697
31.07	888	268.4258469
31.08	866	268.2170984
31.09	864	268.1981213
31.1	853	268.093747
31.11	822	267.7996015
31.12	834	267.9134643
31.13	864	268.1981213
31.14	907	268.6061296
31.15	912	268.6535724
31.16	905	268.5871525
31.17	892	268.4638011
31.18	909	268.6251067
31.19	913	268.663061
31.2	887	268.4163583
31.21	873	268.2835184
31.22	884	268.3878926
31.23	895	268.4922668
31.24	887	268.4163583
31.25	873	268.2835184
31.26	881	268.3594269
31.27	887	268.4163583
31.28	846	268.0273271
31.29	855	268.1127242
31.3	876	268.3119841
31.31	881	268.3594269
31.32	897	268.511244
31.33	903	268.5681753
31.34	895	268.4922668
31.35	884	268.3878926
31.36	879	268.3404498
31.37	867	268.226587
31.38	885	268.3973812
31.39	896	268.5017554
31.4	874	268.2930069
31.41	892	268.4638011
31.42	897	268.511244
31.43	897	268.511244
31.44	890	268.444824
31.45	857	268.1317013
31.46	892	268.4638011
31.47	889	268.4353354
31.48	908	268.6156182
31.49	904	268.5776639
31.5	884	268.3878926
31.51	884	268.3878926
31.52	881	268.3594269
31.53	868	268.2360755
31.54	868	268.2360755
31.55	878	268.3309612
31.56	883	268.378404
31.57	877	268.3214726
31.58	861	268.1696556
31.59	856	268.1222127
31.6	855	268.1127242
31.61	863	268.1886327
31.62	904	268.5776639
31.63	893	268.4732897
31.64	900	268.5397096
31.65	898	268.5207325
31.66	885	268.3973812
31.67	914	268.6725496
31.68	923	268.7579467
31.69	848	268.0463042
31.7	849	268.0557928
31.71	879	268.3404498
31.72	873	268.2835184
31.73	884	268.3878926
31.74	889	268.4353354
31.75	872	268.2740298
31.76	850	268.0652813
31.77	868	268.2360755
31.78	887	268.4163583
31.79	878	268.3309612
31.8	848	268.0463042
31.81	860	268.160167
31.82	889	268.4353354
31.83	899	268.5302211
31.84	885	268.3973812
31.85	883	268.378404
31.86	901	268.5491982
31.87	921	268.7389695
31.88	896	268.5017554
31.89	868	268.2360755
31.9	846	268.0273271
31.91	847	268.0368156
31.92	887	268.4163583
31.93	917	268.7010153
31.94	902	268.5586868
31.95	884	268.3878926
31.96	873	268.2835184
31.97	890	268.444824
31.98	909	268.6251067
31.99	887	268.4163583
32	875	268.3024955
32.01	881	268.3594269
32.02	904	268.5776639
32.03	914	268.6725496
32.04	926	268.7864124
32.05	927	268.7959009
32.06	946	268.9761837
32.07	956	269.0710694
32.08	959	269.0995351
32.09	962	269.1280008
32.1	974	269.2418636
32.11	975	269.2513521
32.12	993	269.4221463
32.13	1000	269.4885663
32.14	968	269.1849322
32.15	925	268.7769238
32.16	914	268.6725496
32.17	953	269.0426037
32.18	953	269.0426037
32.19	941	268.9287409
32.2	949	269.0046494
32.21	945	268.9666951
32.22	924	268.7674352
32.23	916	268.6915267
32.24	942	268.9382294
32.25	913	268.663061
32.26	870	268.2550527
32.27	873	268.2835184
32.28	912	268.6535724
32.29	952	269.0331151
32.3	931	268.8338552
32.31	923	268.7579467
32.32	909	268.6251067
32.33	905	268.5871525
32.34	921	268.7389695
32.35	946	268.9761837
32.36	921	268.7389695
32.37	916	268.6915267
32.38	924	268.7674352
32.39	933	268.8528323
32.4	946	268.9761837
32.41	940	268.9192523
32.42	937	268.8907866
32.43	912	268.6535724
32.44	895	268.4922668
32.45	914	268.6725496
32.46	908	268.6156182
32.47	921	268.7389695
32.48	940	268.9192523
32.49	930	268.8243666
32.5	915	268.6820381
32.51	896	268.5017554
32.52	921	268.7389695
32.53	916	268.6915267
32.54	885	268.3973812
32.55	871	268.2645412
32.56	903	268.5681753
32.57	922	268.7484581
32.58	908	268.6156182
32.59	909	268.6251067
32.6	942	268.9382294
32.61	983	269.3272607
32.62	958	269.0900465
32.63	933	268.8528323
32.64	952	269.0331151
32.65	949	269.0046494
32.66	952	269.0331151
32.67	970	269.2039093
32.68	979	269.2893064
32.69	950	269.014138
32.7	954	269.0520922
32.71	963	269.1374893
32.72	950	269.014138
32.73	950	269.014138
32.74	959	269.0995351
32.75	959	269.0995351
32.76	970	269.2039093
32.77	987	269.3652149
32.78	989	269.384192
32.79	972	269.2228864
32.8	952	269.0331151
32.81	954	269.0520922
32.82	970	269.2039093
32.83	974	269.2418636
32.84	981	269.3082835
32.85	991	269.4031692
32.86	975	269.2513521
32.87	955	269.0615808
32.88	983	269.3272607
32.89	1011	269.5929405
32.9	1024	269.7162919
32.91	1041	269.8775975
32.92	1057	270.0294146
32.93	1051	269.9724832
32.94	1034	269.8111775
32.95	1028	269.7542461
32.96	1049	269.953506
32.97	1058	270.0389031
32.98	1102	270.4564
32.99	1154	270.9498055
33	1186	271.2534396
33.01	1213	271.5096309
33.02	1218	271.5570737
33.03	1242	271.7847993
33.04	1285	272.1928077
33.05	1316	272.4869532
33.06	1421	273.4832527
33.07	1602	275.2006832
33.08	1796	277.041465
33.09	2166	280.5522346
33.1	2793	286.5015656
33.11	3693	295.0412753
33.12	4963	307.0917544
33.13	6672	323.3077142
33.14	8521	340.8520733
33.15	9952	354.4302116
33.16	10539	360
33.17	9830	353.2726065
33.18	8383	339.5426511
33.19	6894	325.4141759
33.2	5815	315.1760129
33.21	5367	310.9251352
33.22	5441	311.6272891
33.23	5773	314.7774931
33.24	5906	316.0394724
33.25	5683	313.9235222
33.26	5086	308.2588481
33.27	4143	299.3111301
33.28	3198	290.344435
33.29	2463	283.3703387
33.3	1926	278.2749787
33.31	1605	275.2291489
33.32	1418	273.454787
33.33	1300	272.3351362
33.34	1194	271.3293481
33.35	1146	270.873897
33.36	1138	270.7979884
33.37	1121	270.6366828
33.38	1091	270.3520258
33.39	1066	270.1148117
33.4	1068	270.1337888
33.41	1048	269.9440175
33.42	1013	269.6119176
33.43	1020	269.6783376
33.44	1038	269.8491318
33.45	1010	269.5834519
33.46	968	269.1849322
33.47	980	269.298795
33.48	985	269.3462378
33.49	971	269.2133979
33.5	978	269.2798178
33.51	996	269.450612
33.52	1001	269.4980548
33.53	995	269.4411234
33.54	990	269.3936806
33.55	987	269.3652149
33.56	972	269.2228864
33.57	961	269.1185122
33.58	980	269.298795
33.59	993	269.4221463
33.6	1000	269.4885663
33.61	982	269.3177721
33.62	961	269.1185122
33.63	974	269.2418636
33.64	964	269.1469779
33.65	926	268.7864124
33.66	943	268.947718
33.67	962	269.1280008
33.68	924	268.7674352
33.69	901	268.5491982
33.7	913	268.663061
33.71	909	268.6251067
33.72	912	268.6535724
33.73	901	268.5491982
33.74	913	268.663061
33.75	921	268.7389695
33.76	908	268.6156182
33.77	908	268.6156182
33.78	910	268.6345953
33.79	926	268.7864124
33.8	916	268.6915267
33.81	910	268.6345953
33.82	902	268.5586868
33.83	890	268.444824
33.84	901	268.5491982
33.85	898	268.5207325
33.86	902	268.5586868
33.87	900	268.5397096
33.88	916	268.6915267
33.89	941	268.9287409
33.9	940	268.9192523
33.91	935	268.8718095
33.92	953	269.0426037
33.93	976	269.2608407
33.94	940	268.9192523
33.95	914	268.6725496
33.96	910	268.6345953
33.97	908	268.6156182
33.98	916	268.6915267
33.99	915	268.6820381
34	933	268.8528323
34.01	957	269.0805579
34.02	967	269.1754436
34.03	929	268.8148781
34.04	909	268.6251067
34.05	925	268.7769238
34.06	927	268.7959009
34.07	905	268.5871525
34.08	885	268.3973812
34.09	901	268.5491982
34.1	920	268.729481
34.11	940	268.9192523
34.12	938	268.9002752
34.13	905	268.5871525
34.14	907	268.6061296
34.15	934	268.8623209
34.16	942	268.9382294
34.17	946	268.9761837
34.18	939	268.9097637
34.19	918	268.7105038
34.2	931	268.8338552
34.21	957	269.0805579
34.22	942	268.9382294
34.23	911	268.6440839
34.24	901	268.5491982
34.25	917	268.7010153
34.26	925	268.7769238
34.27	933	268.8528323
34.28	925	268.7769238
34.29	939	268.9097637
34.3	949	269.0046494
34.31	926	268.7864124
34.32	924	268.7674352
34.33	934	268.8623209
34.34	924	268.7674352
34.35	910	268.6345953
34.36	913	268.663061
34.37	917	268.7010153
34.38	920	268.729481
34.39	913	268.663061
34.4	909	268.6251067
34.41	927	268.7959009
34.42	934	268.8623209
34.43	933	268.8528323
34.44	924	268.7674352
34.45	934	268.8623209
34.46	952	269.0331151
34.47	951	269.0236265
34.48	956	269.0710694
34.49	935	268.8718095
34.5	909	268.6251067
34.51	919	268.7199924
34.52	937	268.8907866
34.53	938	268.9002752
34.54	936	268.881298
34.55	957	269.0805579
34.56	969	269.1944207
34.57	960	269.1090236
34.58	944	268.9572066
34.59	921	268.7389695
34.6	914	268.6725496
34.61	911	268.6440839
34.62	928	268.8053895
34.63	958	269.0900465
34.64	961	269.1185122
34.65	946	268.9761837
34.66	937	268.8907866
34.67	905	268.5871525
34.68	901	268.5491982
34.69	926	268.7864124
34.7	939	268.9097637
34.71	959	269.0995351
34.72	964	269.1469779
34.73	936	268.881298
34.74	916	268.6915267
34.75	918	268.7105038
34.76	912	268.6535724
34.77	912	268.6535724
34.78	929	268.8148781
34.79	944	268.9572066
34.8	958	269.0900465
34.81	956	269.0710694
34.82	955	269.0615808
34.83	953	269.0426037
34.84	940	268.9192523
34.85	943	268.947718
34.86	959	269.0995351
34.87	968	269.1849322
34.88	942	268.9382294
34.89	918	268.7105038
34.9	923	268.7579467
34.91	947	268.9856723
34.92	944	268.9572066
34.93	940	268.9192523
34.94	971	269.2133979
34.95	975	269.2513521
34.96	945	268.9666951
34.97	950	269.014138
34.98	958	269.0900465
34.99	952	269.0331151
35	961	269.1185122
35.01	962	269.1280008
35.02	954	269.0520922
35.03	934	268.8623209
35.04	937	268.8907866
35.05	959	269.0995351
35.06	964	269.1469779
35.07	963	269.1374893
35.08	975	269.2513521
35.09	972	269.2228864
35.1	945	268.9666951
35.11	937	268.8907866
35.12	946	268.9761837
35.13	971	269.2133979
35.14	1004	269.5265205
35.15	1000	269.4885663
35.16	995	269.4411234
35.17	1011	269.5929405
35.18	1014	269.6214062
35.19	1025	269.7257804
35.2	1028	269.7542461
35.21	1010	269.5834519
35.22	998	269.4695891
35.23	999	269.4790777
35.24	1025	269.7257804
35.25	1024	269.7162919
35.26	981	269.3082835
35.27	970	269.2039093
35.28	1003	269.517032
35.29	1030	269.7732233
35.3	1045	269.9155518
35.31	1048	269.9440175
35.32	1043	269.8965746
35.33	1053	269.9914603
35.34	1052	269.9819717
35.35	1024	269.7162919
35.36	1003	269.517032
35.37	1027	269.7447576
35.38	1031	269.7827118
35.39	1007	269.5549862
35.4	1044	269.9060632
35.41	1078	270.2286744
35.42	1088	270.3235601
35.43	1104	270.4753772
35.44	1122	270.6461714
35.45	1127	270.6936142
35.46	1145	270.8644084
35.47	1188	271.2724167
35.48	1193	271.3198596
35.49	1199	271.376791
35.5	1263	271.9840592
35.51	1369	272.9898472
35.52	1467	273.9197267
35.53	1574	274.9350033
35.54	1749	276.5955024
35.55	2042	279.3756523
35.56	2566	284.3476611
35.57	3337	291.6633457
35.58	4279	300.6015751
35.59	5476	311.9593889
35.6	6884	325.3192903
35.61	8106	336.9143182
35.62	8806	343.5563146
35.63	8831	343.7935288
35.64	8204	337.8441977
35.65	7274	329.0198311
35.66	6612	322.7384002
35.67	6386	320.5939842
35.68	6390	320.6319385
35.69	6475	321.4384666
35.7	6589	322.5201632
35.71	6598	322.6055603
35.72	6196	318.7911567
35.73	5457	311.7791062
35.74	4647	304.0933675
35.75	3904	297.0433627
35.76	3375	292.0239112
35.77	3042	288.8642186
35.78	2696	285.5811747
35.79	2403	282.8010248
35.8	2161	280.5047917
35.81	1908	278.1041845
35.82	1679	275.9313028
35.83	1513	274.3562008
35.84	1394	273.2270614
35.85	1288	272.2212734
35.86	1240	271.7658222
35.87	1207	271.4526995
35.88	1145	270.8644084
35.89	1114	270.5702628
35.9	1119	270.6177057
35.91	1116	270.58924
35.92	1080	270.2476516
35.93	1065	270.1053231
35.94	1058	270.0389031
35.95	1039	269.8586204
35.96	1068	270.1337888
35.97	1083	270.2761173
35.98	1065	270.1053231
35.99	1054	270.0009489
36	1050	269.9629946
36.01	1046	269.9250403
36.02	1026	269.735269
36.03	1007	269.5549862
36.04	1009	269.5739634
36.05	1013	269.6119176
36.06	1002	269.5075434
36.07	987	269.3652149
36.08	996	269.450612
36.09	1020	269.6783376
36.1	1014	269.6214062
36.11	998	269.4695891
36.12	1001	269.4980548
36.13	994	269.4316349
36.14	983	269.3272607
36.15	961	269.1185122
36.16	961	269.1185122
36.17	965	269.1564665
36.18	969	269.1944207
36.19	964	269.1469779
36.2	959	269.0995351
36.21	982	269.3177721
36.22	984	269.3367492
36.23	963	269.1374893
36.24	937	268.8907866
36.25	922	268.7484581
36.26	941	268.9287409
36.27	973	269.232375
36.28	987	269.3652149
36.29	983	269.3272607
36.3	983	269.3272607
36.31	992	269.4126577
36.32	983	269.3272607
36.33	967	269.1754436
36.34	951	269.0236265
36.35	956	269.0710694
36.36	964	269.1469779
36.37	934	268.8623209
36.38	911	268.6440839
36.39	912	268.6535724
36.4	930	268.8243666
36.41	955	269.0615808
36.42	975	269.2513521
36.43	981	269.3082835
36.44	979	269.2893064
36.45	994	269.4316349
36.46	1006	269.5454977
36.47	989	269.384192
36.48	968	269.1849322
36.49	959	269.0995351
36.5	976	269.2608407
36.51	979	269.2893064
36.52	946	268.9761837
36.53	921	268.7389695
36.54	922	268.7484581
36.55	941	268.9287409
36.56	925	268.7769238
36.57	947	268.9856723
36.58	976	269.2608407
36.59	957	269.0805579
36.6	947	268.9856723
36.61	954	269.0520922
36.62	948	268.9951608
36.63	944	268.9572066
36.64	953	269.0426037
36.65	961	269.1185122
36.66	972	269.2228864
36.67	961	269.1185122
36.68	945	268.9666951
36.69	957	269.0805579
36.7	958	269.0900465
36.71	936	268.881298
36.72	927	268.7959009
36.73	928	268.8053895
36.74	945	268.9666951
36.75	962	269.1280008
36.76	948	268.9951608
36.77	958	269.0900465
36.78	982	269.3177721
36.79	959	269.0995351
36.8	978	269.2798178
36.81	997	269.4601006
36.82	968	269.1849322
36.83	971	269.2133979
36.84	971	269.2133979
36.85	980	269.298795
36.86	978	269.2798178
36.87	964	269.1469779
36.88	938	268.9002752
36.89	957	269.0805579
36.9	975	269.2513521
36.91	955	269.0615808
36.92	936	268.881298
36.93	945	268.9666951
36.94	947	268.9856723
36.95	951	269.0236265
36.96	959	269.0995351
36.97	949	269.0046494
36.98	934	268.8623209
36.99	942	268.9382294
37	928	268.8053895
37.01	928	268.8053895
37.02	966	269.165955
37.03	938	268.9002752
37.04	930	268.8243666
37.05	955	269.0615808
37.06	953	269.0426037
37.07	954	269.0520922
37.08	971	269.2133979
37.09	965	269.1564665
37.1	964	269.1469779
37.11	975	269.2513521
37.12	970	269.2039093
37.13	967	269.1754436
37.14	976	269.2608407
37.15	959	269.0995351
37.16	955	269.0615808
37.17	956	269.0710694
37.18	970	269.2039093
37.19	951	269.0236265
37.2	919	268.7199924
37.21	936	268.881298
37.22	964	269.1469779
37.23	957	269.0805579
37.24	958	269.0900465
37.25	978	269.2798178
37.26	1000	269.4885663
37.27	1019	269.668849
37.28	1045	269.9155518
37.29	1075	270.2002087
37.3	1069	270.1432774
37.31	1080	270.2476516
37.32	1084	270.2856058
37.33	1079	270.238163
37.34	1076	270.2096973
37.35	1047	269.9345289
37.36	1030	269.7732233
37.37	1022	269.6973147
37.38	1026	269.735269
37.39	1037	269.8396432
37.4	1068	270.1337888
37.41	1076	270.2096973
37.42	1052	269.9819717
37.43	1031	269.7827118
37.44	1040	269.8681089
37.45	1013	269.6119176
37.46	1002	269.5075434
37.47	1000	269.4885663
37.48	991	269.4031692
37.49	991	269.4031692
37.5	998	269.4695891
37.51	967	269.1754436
37.52	947	268.9856723
37.53	955	269.0615808
37.54	997	269.4601006
37.55	1011	269.5929405
37.56	964	269.1469779
37.57	942	268.9382294
37.58	974	269.2418636
37.59	990	269.3936806
37.6	977	269.2703293
37.61	954	269.0520922
37.62	946	268.9761837
37.63	945	268.9666951
37.64	952	269.0331151
37.65	960	269.1090236
37.66	961	269.1185122
37.67	973	269.232375
37.68	989	269.384192
37.69	989	269.384192
37.7	983	269.3272607
37.71	951	269.0236265
37.72	939	268.9097637
37.73	953	269.0426037
37.74	955	269.0615808
37.75	982	269.3177721
37.76	987	269.3652149
37.77	964	269.1469779
37.78	958	269.0900465
37.79	973	269.232375
37.8	960	269.1090236
37.81	968	269.1849322
37.82	987	269.3652149
37.83	997	269.4601006
37.84	984	269.3367492
37.85	975	269.2513521
37.86	976	269.2608407
37.87	943	268.947718
37.88	943	268.947718
37.89	979	269.2893064
37.9	980	269.298795
37.91	978	269.2798178
37.92	976	269.2608407
37.93	974	269.2418636
37.94	986	269.3557263
37.95	984	269.3367492
37.96	994	269.4316349
37.97	980	269.298795
37.98	960	269.1090236
37.99	966	269.165955
38	973	269.232375
38.01	955	269.0615808
38.02	974	269.2418636
38.03	947	268.9856723
38.04	926	268.7864124
38.05	975	269.2513521
38.06	990	269.3936806
38.07	979	269.2893064
38.08	959	269.0995351
38.09	959	269.0995351
38.1	951	269.0236265
38.11	943	268.947718
38.12	978	269.2798178
38.13	986	269.3557263
38.14	986	269.3557263
38.15	979	269.2893064
38.16	964	269.1469779
38.17	960	269.1090236
38.18	1003	269.517032
38.19	1014	269.6214062
38.2	993	269.4221463
38.21	1001	269.4980548
38.22	992	269.4126577
38.23	959	269.0995351
38.24	959	269.0995351
38.25	987	269.3652149
38.26	994	269.4316349
38.27	969	269.1944207
38.28	969	269.1944207
38.29	970	269.2039093
38.3	964	269.1469779
38.31	951	269.0236265
38.32	954	269.0520922
38.33	1003	269.517032
38.34	983	269.3272607
38.35	975	269.2513521
38.36	980	269.298795
38.37	979	269.2893064
38.38	990	269.3936806
38.39	1020	269.6783376
38.4	999	269.4790777
38.41	981	269.3082835
38.42	976	269.2608407
38.43	991	269.4031692
38.44	980	269.298795
38.45	982	269.3177721
38.46	990	269.3936806
38.47	1000	269.4885663
38.48	976	269.2608407
38.49	987	269.3652149
38.5	1009	269.5739634
38.51	1006	269.5454977
38.52	975	269.2513521
38.53	994	269.4316349
38.54	999	269.4790777
38.55	996	269.450612
38.56	1003	269.517032
38.57	995	269.4411234
38.58	977	269.2703293
38.59	966	269.165955
38.6	994	269.4316349
38.61	1025	269.7257804
38.62	1005	269.5360091
38.63	988	269.3747035
38.64	1006	269.5454977
38.65	1007	269.5549862
38.66	978	269.2798178
38.67	939	268.9097637
38.68	955	269.0615808
38.69	937	268.8907866
38.7	973	269.232375
38.71	985	269.3462378
38.72	987	269.3652149
38.73	991	269.4031692
38.74	998	269.4695891
38.75	953	269.0426037
38.76	956	269.0710694
38.77	991	269.4031692
38.78	978	269.2798178
38.79	951	269.0236265
38.8	928	268.8053895
38.81	928	268.8053895
38.82	984	269.3367492
38.83	966	269.165955
38.84	955	269.0615808
38.85	972	269.2228864
38.86	973	269.232375
38.87	945	268.9666951
38.88	959	269.0995351
38.89	971	269.2133979
38.9	964	269.1469779
38.91	960	269.1090236
38.92	957	269.0805579
38.93	983	269.3272607
38.94	974	269.2418636
38.95	952	269.0331151
38.96	953	269.0426037
38.97	940	268.9192523
38.98	928	268.8053895
38.99	954	269.0520922
39	970	269.2039093
39.01	962	269.1280008
39.02	957	269.0805579
39.03	979	269.2893064
39.04	988	269.3747035
39.05	979	269.2893064
39.06	978	269.2798178
39.07	974	269.2418636
39.08	984	269.3367492
39.09	985	269.3462378
39.1	988	269.3747035
39.11	990	269.3936806
39.12	992	269.4126577
39.13	995	269.4411234
39.14	1005	269.5360091
39.15	980	269.298795
39.16	1012	269.6024291
39.17	1038	269.8491318
39.18	1020	269.6783376
39.19	992	269.4126577
39.2	985	269.3462378
39.21	983	269.3272607
39.22	969	269.1944207
39.23	993	269.4221463
39.24	1023	269.7068033
39.25	1037	269.8396432
39.26	1049	269.953506
39.27	1085	270.2950944
39.28	1147	270.8833855
39.29	1205	271.4337224
39.3	1185	271.243951
39.31	1142	270.8359427
39.32	1102	270.4564
39.33	1102	270.4564
39.34	1047	269.9345289
39.35	1049	269.953506
39.36	1047	269.9345289
39.37	1049	269.953506
39.38	1089	270.3330487
39.39	1070	270.1527659
39.4	1056	270.019926
39.41	1050	269.9629946
39.42	1010	269.5834519
39.43	1000	269.4885663
39.44	1002	269.5075434
39.45	1006	269.5454977
39.46	986	269.3557263
39.47	970	269.2039093
39.48	1002	269.5075434
39.49	1006	269.5454977
39.5	988	269.3747035
39.51	980	269.298795
39.52	1009	269.5739634
39.53	984	269.3367492
39.54	971	269.2133979
39.55	986	269.3557263
39.56	988	269.3747035
39.57	974	269.2418636
39.58	1018	269.6593605
39.59	993	269.4221463
39.6	977	269.2703293
39.61	964	269.1469779
39.62	939	268.9097637
39.63	963	269.1374893
39.64	989	269.384192
39.65	966	269.165955
39.66	963	269.1374893
39.67	963	269.1374893
39.68	981	269.3082835
39.69	981	269.3082835
39.7	983	269.3272607
39.71	974	269.2418636
39.72	990	269.3936806
39.73	996	269.450612
39.74	1004	269.5265205
39.75	979	269.2893064
39.76	995	269.4411234
39.77	970	269.2039093
39.78	975	269.2513521
39.79	965	269.1564665
39.8	946	268.9761837
39.81	932	268.8433438
39.82	908	268.6156182
39.83	964	269.1469779
39.84	1012	269.6024291
39.85	996	269.450612
39.86	983	269.3272607
39.87	972	269.2228864
39.88	929	268.8148781
39.89	941	268.9287409
39.9	993	269.4221463
39.91	982	269.3177721
39.92	1000	269.4885663
39.93	1008	269.5644748
39.94	1000	269.4885663
39.95	962	269.1280008
39.96	970	269.2039093
39.97	965	269.1564665
39.98	985	269.3462378
39.99	972	269.2228864
40	1006	269.5454977
40.01	987	269.3652149
40.02	998	269.4695891
40.03	974	269.2418636
40.04	953	269.0426037
40.05	985	269.3462378
40.06	1000	269.4885663
40.07	989	269.384192
40.08	988	269.3747035
40.09	992	269.4126577
40.1	1017	269.6498719
40.11	1002	269.5075434
40.12	957	269.0805579
40.13	957	269.0805579
40.14	972	269.2228864
40.15	971	269.2133979
40.16	981	269.3082835
40.17	983	269.3272607
40.18	1009	269.5739634
40.19	1024	269.7162919
40.2	975	269.2513521
40.21	994	269.4316349
40.22	1003	269.517032
40.23	997	269.4601006
40.24	982	269.3177721
40.25	993	269.4221463
40.26	991	269.4031692
40.27	988	269.3747035
40.28	985	269.3462378
40.29	1019	269.668849
40.3	1002	269.5075434
40.31	980	269.298795
40.32	956	269.0710694
40.33	974	269.2418636
40.34	962	269.1280008
40.35	989	269.384192
40.36	998	269.4695891
40.37	988	269.3747035
40.38	968	269.1849322
40.39	989	269.384192
40.4	999	269.4790777
40.41	1047	269.9345289
40.42	1049	269.953506
40.43	1034	269.8111775
40.44	1038	269.8491318
40.45	1028	269.7542461
40.46	1014	269.6214062
40.47	1016	269.6403833
40.48	1032	269.7922004
40.49	1032	269.7922004
40.5	1009	269.5739634
40.51	1003	269.517032
40.52	995	269.4411234
40.53	1032	269.7922004
40.54	1046	269.9250403
40.55	1012	269.6024291
40.56	1026	269.735269
40.57	1061	270.0673688
40.58	1036	269.8301547
40.59	1046	269.9250403
40.6	1052	269.9819717
40.61	1048	269.9440175
40.62	1056	270.019926
40.63	1057	270.0294146
40.64	1082	270.2666287
40.65	1077	270.2191859
40.66	1056	270.019926
40.67	1029	269.7637347
40.68	1044	269.9060632
40.69	1098	270.4184458
40.7	1107	270.5038429
40.71	1090	270.3425372
40.72	1082	270.2666287
40.73	1117	270.5987285
40.74	1116	270.58924
40.75	1133	270.7505456
40.76	1160	271.0067369
40.77	1178	271.1775311
40.78	1301	272.3446247
40.79	1451	273.7679097
40.8	1594	275.1247746
40.81	1901	278.0377645
40.82	2288	281.7098396
40.83	2670	285.334472
40.84	3077	289.1963184
40.85	3327	291.56846
40.86	3387	292.137774
40.87	3151	289.8984723
40.88	2732	285.9227631
40.89	2336	282.1652908
40.9	2043	279.3851409
40.91	1864	277.6866875
40.92	1818	277.2502135
40.93	1903	278.0567416
40.94	2080	279.7362179
40.95	2237	281.2259228
40.96	2267	281.5105798
40.97	2235	281.2069456
40.98	2069	279.6318436
40.99	1825	277.3166335
41	1596	275.1437518
41.01	1427	273.5401841
41.02	1254	271.8986621
41.03	1169	271.092134
41.04	1163	271.0352026
41.05	1134	270.7600342
41.06	1072	270.171743
41.07	1055	270.0104374
41.08	1084	270.2856058
41.09	1062	270.0768574
41.1	1002	269.5075434
41.11	993	269.4221463
41.12	1027	269.7447576
41.13	1046	269.9250403
41.14	1065	270.1053231
41.15	1031	269.7827118
41.16	1038	269.8491318
41.17	1049	269.953506
41.18	1012	269.6024291
41.19	1055	270.0104374
41.2	1069	270.1432774
41.21	1073	270.1812316
41.22	1045	269.9155518
41.23	1001	269.4980548
41.24	1005	269.5360091
41.25	1072	270.171743
41.26	1003	269.517032
41.27	1007	269.5549862
41.28	1012	269.6024291
41.29	1041	269.8775975
41.3	1072	270.171743
41.31	1044	269.9060632
41.32	1028	269.7542461
41.33	990	269.3936806
41.34	997	269.4601006
41.35	1032	269.7922004
41.36	1019	269.668849
41.37	1032	269.7922004
41.38	1036	269.8301547
41.39	1005	269.5360091
41.4	978	269.2798178
41.41	976	269.2608407
41.42	996	269.450612
41.43	1015	269.6308948
41.44	996	269.450612
41.45	1013	269.6119176
41.46	980	269.298795
41.47	1028	269.7542461
41.48	1002	269.5075434
41.49	1002	269.5075434
41.5	1011	269.5929405
41.51	992	269.4126577
41.52	1013	269.6119176
41.53	1026	269.735269
41.54	1023	269.7068033
41.55	1007	269.5549862
41.56	997	269.4601006
41.57	1046	269.9250403
41.58	1038	269.8491318
41.59	1019	269.668849
41.6	1001	269.4980548
41.61	1049	269.953506
41.62	1007	269.5549862
41.63	1025	269.7257804
41.64	1024	269.7162919
41.65	1017	269.6498719
41.66	1027	269.7447576
41.67	1044	269.9060632
41.68	1036	269.8301547
41.69	995	269.4411234
41.7	1009	269.5739634
41.71	1015	269.6308948
41.72	1023	269.7068033
41.73	1027	269.7447576
41.74	1016	269.6403833
41.75	1046	269.9250403
41.76	1058	270.0389031
41.77	1028	269.7542461
41.78	1020	269.6783376
41.79	1017	269.6498719
41.8	1042	269.8870861
41.81	996	269.450612
41.82	967	269.1754436
41.83	1011	269.5929405
41.84	1025	269.7257804
41.85	1041	269.8775975
41.86	1004	269.5265205
41.87	1013	269.6119176
41.88	1029	269.7637347
41.89	1039	269.8586204
41.9	1031	269.7827118
41.91	1016	269.6403833
41.92	1059	270.0483917
41.93	1045	269.9155518
41.94	1041	269.8775975
41.95	1035	269.8206661
41.96	998	269.4695891
41.97	1006	269.5454977
41.98	1012	269.6024291
41.99	999	269.4790777
42	981	269.3082835
42.01	997	269.4601006
42.02	995	269.4411234
42.03	994	269.4316349
42.04	997	269.4601006
42.05	990	269.3936806
42.06	1010	269.5834519
42.07	1016	269.6403833
42.08	1000	269.4885663
42.09	1013	269.6119176
42.1	1022	269.6973147
42.11	1008	269.5644748
42.12	1009	269.5739634
42.13	1038	269.8491318
42.14	1028	269.7542461
42.15	1020	269.6783376
42.16	1010	269.5834519
42.17	1022	269.6973147
42.18	1037	269.8396432
42.19	1042	269.8870861
42.2	1000	269.4885663
42.21	994	269.4316349
42.22	1025	269.7257804
42.23	1046	269.9250403
42.24	1007	269.5549862
42.25	976	269.2608407
42.26	975	269.2513521
42.27	1047	269.9345289
42.28	1003	269.517032
42.29	1018	269.6593605
42.3	1070	270.1527659
42.31	1045	269.9155518
42.32	1045	269.9155518
42.33	1066	270.1148117
42.34	1017	269.6498719
42.35	1003	269.517032
42.36	972	269.2228864
42.37	1017	269.6498719
42.38	1046	269.9250403
42.39	1059	270.0483917
42.4	1057	270.0294146
42.41	1008	269.5644748
42.42	1020	269.6783376
42.43	1051	269.9724832
42.44	1036	269.8301547
42.45	1002	269.5075434
42.46	1009	269.5739634
42.47	1018	269.6593605
42.48	1073	270.1812316
42.49	1036	269.8301547
42.5	1063	270.086346
42.51	1033	269.801689
42.52	992	269.4126577
42.53	1020	269.6783376
42.54	1022	269.6973147
42.55	1008	269.5644748
42.56	1026	269.735269
42.57	1061	270.0673688
42.58	1051	269.9724832
42.59	1015	269.6308948
42.6	1033	269.801689
42.61	1006	269.5454977
42.62	983	269.3272607
42.63	1013	269.6119176
42.64	1051	269.9724832
42.65	1045	269.9155518
42.66	1044	269.9060632
42.67	1004	269.5265205
42.68	1004	269.5265205
42.69	1034	269.8111775
42.7	1050	269.9629946
42.71	994	269.4316349
42.72	1001	269.4980548
42.73	1011	269.5929405
42.74	1019	269.668849
42.75	1026	269.735269
42.76	1075	270.2002087
42.77	1093	270.3710029
42.78	1061	270.0673688
42.79	1003	269.517032
42.8	1027	269.7447576
42.81	1030	269.7732233
42.82	1021	269.6878262
42.83	1051	269.9724832
42.84	1058	270.0389031
42.85	1060	270.0578803
42.86	1013	269.6119176
42.87	987	269.3652149
42.88	970	269.2039093
42.89	996	269.450612
42.9	1012	269.6024291
42.91	1054	270.0009489
42.92	1048	269.9440175
42.93	989	269.384192
42.94	1015	269.6308948
42.95	1016	269.6403833
42.96	977	269.2703293
42.97	1020	269.6783376
42.98	1036	269.8301547
42.99	1012	269.6024291
43	1021	269.6878262
43.01	1054	270.0009489
43.02	1076	270.2096973
43.03	1055	270.0104374
43.04	1022	269.6973147
43.05	1042	269.8870861
43.06	1093	270.3710029
43.07	1047	269.9345289
43.08	1027	269.7447576
43.09	1032	269.7922004
43.1	1010	269.5834519
43.11	1048	269.9440175
43.12	1064	270.0958345
43.13	1080	270.2476516
43.14	1053	269.9914603
43.15	1035	269.8206661
43.16	1029	269.7637347
43.17	1048	269.9440175
43.18	1087	270.3140715
43.19	1072	270.171743
43.2	1019	269.668849
43.21	1031	269.7827118
43.22	1059	270.0483917
43.23	1065	270.1053231
43.24	1074	270.1907202
43.25	1097	270.4089572
43.26	1089	270.3330487
43.27	1124	270.6651485
43.28	1101	270.4469115
43.29	1137	270.7884999
43.3	1225	271.6234937
43.31	1271	272.0599677
43.32	1309	272.4205333
43.33	1342	272.7336559
43.34	1442	273.6825126
43.35	1538	274.5934149
43.36	1515	274.3751779
43.37	1523	274.4510864
43.38	1526	274.4795521
43.39	1530	274.5175064
43.4	1491	274.1474523
43.41	1447	273.7299554
43.42	1399	273.2745042
43.43	1380	273.0942215
43.44	1374	273.0372901
43.45	1374	273.0372901
43.46	1388	273.17013
43.47	1446	273.7204668
43.48	1469	273.9387039
43.49	1523	274.4510864
43.5	1498	274.2138723
43.51	1476	274.0051238
43.52	1386	273.1511529
43.53	1306	272.3920676
43.54	1243	271.7942879
43.55	1201	271.3957681
43.56	1196	271.3483253
43.57	1183	271.2249739
43.58	1184	271.2344625
43.59	1168	271.0826454
43.6	1179	271.1870196
43.61	1159	270.9972483
43.62	1158	270.9877597
43.63	1147	270.8833855
43.64	1111	270.5417971
43.65	1093	270.3710029
43.66	1088	270.3235601
43.67	1080	270.2476516
43.68	1093	270.3710029
43.69	1074	270.1907202
43.7	1047	269.9345289
43.71	1059	270.0483917
43.72	1054	270.0009489
43.73	1016	269.6403833
43.74	1006	269.5454977
43.75	1026	269.735269
43.76	1030	269.7732233
43.77	1051	269.9724832
43.78	1061	270.0673688
43.79	1043	269.8965746
43.8	1043	269.8965746
43.81	1055	270.0104374
43.82	1015	269.6308948
43.83	1017	269.6498719
43.84	1024	269.7162919
43.85	1026	269.735269
43.86	1052	269.9819717
43.87	1046	269.9250403
43.88	1035	269.8206661
43.89	999	269.4790777
43.9	996	269.450612
43.91	1059	270.0483917
43.92	1062	270.0768574
43.93	1036	269.8301547
43.94	1077	270.2191859
43.95	1057	270.0294146
43.96	1044	269.9060632
43.97	1008	269.5644748
43.98	987	269.3652149
43.99	976	269.2608407
44	995	269.4411234
44.01	1014	269.6214062
44.02	1047	269.9345289
44.03	1016	269.6403833
44.04	1008	269.5644748
44.05	1006	269.5454977
44.06	1045	269.9155518
44.07	1043	269.8965746
44.08	1041	269.8775975
44.09	1043	269.8965746
44.1	1041	269.8775975
44.11	1042	269.8870861
44.12	1019	269.668849
44.13	1015	269.6308948
44.14	1036	269.8301547
44.15	1049	269.953506
44.16	1053	269.9914603
44.17	1065	270.1053231
44.18	1047	269.9345289
44.19	1017	269.6498719
44.2	1018	269.6593605
44.21	1038	269.8491318
44.22	1018	269.6593605
44.23	974	269.2418636
44.24	1001	269.4980548
44.25	1011	269.5929405
44.26	1035	269.8206661
44.27	1010	269.5834519
44.28	1003	269.517032
44.29	1031	269.7827118
44.3	1057	270.0294146
44.31	1055	270.0104374
44.32	1052	269.9819717
44.33	1032	269.7922004
44.34	1048	269.9440175
44.35	1044	269.9060632
44.36	1033	269.801689
44.37	1049	269.953506
44.38	1074	270.1907202
44.39	1094	270.3804915
44.4	1094	270.3804915
44.41	1077	270.2191859
44.42	1120	270.6271942
44.43	1122	270.6461714
44.44	1072	270.171743
44.45	1073	270.1812316
44.46	1073	270.1812316
44.47	1043	269.8965746
44.48	1025	269.7257804
44.49	1044	269.9060632
44.5	1035	269.8206661
44.51	1019	269.668849
44.52	1014	269.6214062
44.53	999	269.4790777
44.54	1021	269.6878262
44.55	997	269.4601006
44.56	1027	269.7447576
44.57	1051	269.9724832
44.58	1034	269.8111775
44.59	1034	269.8111775
44.6	1041	269.8775975
44.61	1044	269.9060632
44.62	1058	270.0389031
44.63	997	269.4601006
44.64	991	269.4031692
44.65	1037	269.8396432
44.66	1053	269.9914603
44.67	1062	270.0768574
44.68	1041	269.8775975
44.69	1029	269.7637347
44.7	1053	269.9914603
44.71	1074	270.1907202
44.72	1087	270.3140715
44.73	1058	270.0389031
44.74	1024	269.7162919
44.75	1060	270.0578803
44.76	1089	270.3330487
44.77	1043	269.8965746
44.78	1019	269.668849
44.79	1024	269.7162919
44.8	1041	269.8775975
44.81	1043	269.8965746
44.82	1031	269.7827118
44.83	1030	269.7732233
44.84	1073	270.1812316
44.85	1065	270.1053231
44.86	1021	269.6878262
44.87	1023	269.7068033
44.88	1032	269.7922004
44.89	1016	269.6403833
44.9	1025	269.7257804
44.91	1049	269.953506
44.92	1056	270.019926
44.93	1045	269.9155518
44.94	1032	269.7922004
44.95	1059	270.0483917
44.96	1038	269.8491318
44.97	1043	269.8965746
44.98	1037	269.8396432
44.99	1040	269.8681089
45	1088	270.3235601
45.01	1066	270.1148117
45.02	1051	269.9724832
45.03	1039	269.8586204
45.04	1033	269.801689
45.05	1040	269.8681089
45.06	1052	269.9819717
45.07	1045	269.9155518
45.08	1043	269.8965746
45.09	1044	269.9060632
45.1	1048	269.9440175
45.11	1054	270.0009489
45.12	1068	270.1337888
45.13	1085	270.2950944
45.14	1060	270.0578803
45.15	1052	269.9819717
45.16	1040	269.8681089
45.17	1033	269.801689
45.18	1051	269.9724832
45.19	1055	270.0104374
45.2	1076	270.2096973
45.21	1059	270.0483917
45.22	1055	270.0104374
45.23	1081	270.2571401
45.24	1055	270.0104374
45.25	1036	269.8301547
45.26	1040	269.8681089
45.27	1052	269.9819717
45.28	1061	270.0673688
45.29	1065	270.1053231
45.3	1086	270.304583
45.31	1079	270.238163
45.32	1072	270.171743
45.33	1071	270.1622545
45.34	1055	270.0104374
45.35	1066	270.1148117
45.36	1071	270.1622545
45.37	1038	269.8491318
45.38	1016	269.6403833
45.39	1027	269.7447576
45.4	1057	270.0294146
45.41	1073	270.1812316
45.42	1032	269.7922004
45.43	1007	269.5549862
45.44	1023	269.7068033
45.45	1051	269.9724832
45.46	1028	269.7542461
45.47	1042	269.8870861
45.48	1022	269.6973147
45.49	1022	269.6973147
45.5	1026	269.735269
45.51	1043	269.8965746
45.52	1040	269.8681089
45.53	1048	269.9440175
45.54	1057	270.0294146
45.55	1047	269.9345289
45.56	1047	269.9345289
45.57	1066	270.1148117
45.58	1073	270.1812316
45.59	1061	270.0673688
45.6	1033	269.801689
45.61	1021	269.6878262
45.62	1037	269.8396432
45.63	1050	269.9629946
45.64	1052	269.9819717
45.65	1043	269.8965746
45.66	1024	269.7162919
45.67	993	269.4221463
45.68	1011	269.5929405
45.69	1029	269.7637347
45.7	1040	269.8681089
45.71	1046	269.9250403
45.72	1024	269.7162919
45.73	1021	269.6878262
45.74	1016	269.6403833
45.75	1020	269.6783376
45.76	1023	269.7068033
45.77	1039	269.8586204
45.78	1061	270.0673688
45.79	1071	270.1622545
45.8	1071	270.1622545
45.81	1045	269.9155518
45.82	1044	269.9060632
45.83	1038	269.8491318
45.84	1036	269.8301547
45.85	1079	270.238163
45.86	1090	270.3425372
45.87	1058	270.0389031
45.88	1030	269.7732233
45.89	1039	269.8586204
45.9	1077	270.2191859
45.91	1064	270.0958345
45.92	1053	269.9914603
45.93	1060	270.0578803
45.94	1063	270.086346
45.95	1076	270.2096973
45.96	1056	270.019926
45.97	1043	269.8965746
45.98	1054	270.0009489
45.99	1048	269.9440175
46	1059	270.0483917
46.01	1044	269.9060632
46.02	1023	269.7068033
46.03	1035	269.8206661
46.04	1022	269.6973147
46.05	1026	269.735269
46.06	1058	270.0389031
46.07	1061	270.0673688
46.08	1069	270.1432774
46.09	1052	269.9819717
46.1	1041	269.8775975
46.11	1048	269.9440175
46.12	1052	269.9819717
46.13	1064	270.0958345
46.14	1069	270.1432774
46.15	1061	270.0673688
46.16	1049	269.953506
46.17	1046	269.9250403
46.18	1050	269.9629946
46.19	1056	270.019926
46.2	1058	270.0389031
46.21	1060	270.0578803
46.22	1064	270.0958345
46.23	1072	270.171743
46.24	1050	269.9629946
46.25	1027	269.7447576
46.26	1037	269.8396432
46.27	1076	270.2096973
46.28	1098	270.4184458
46.29	1056	270.019926
46.3	1037	269.8396432
46.31	1044	269.9060632
46.32	1020	269.6783376
46.33	1007	269.5549862
46.34	1043	269.8965746
46.35	1083	270.2761173
46.36	1065	270.1053231
46.37	1046	269.9250403
46.38	1059	270.0483917
46.39	1055	270.0104374
46.4	1035	269.8206661
46.41	1048	269.9440175
46.42	1065	270.1053231
46.43	1063	270.086346
46.44	1077	270.2191859
46.45	1101	270.4469115
46.46	1113	270.5607743
46.47	1076	270.2096973
46.48	1039	269.8586204
46.49	1039	269.8586204
46.5	1083	270.2761173
46.51	1086	270.304583
46.52	1042	269.8870861
46.53	1042	269.8870861
46.54	1074	270.1907202
46.55	1086	270.304583
46.56	1051	269.9724832
46.57	1040	269.8681089
46.58	1058	270.0389031
46.59	1066	270.1148117
46.6	1071	270.1622545
46.61	1069	270.1432774
46.62	1067	270.1243002
46.63	1055	270.0104374
46.64	1038	269.8491318
46.65	1044	269.9060632
46.66	1067	270.1243002
46.67	1071	270.1622545
46.68	1077	270.2191859
46.69	1061	270.0673688
46.7	1057	270.0294146
46.71	1054	270.0009489
46.72	1042	269.8870861
46.73	1052	269.9819717
46.74	1073	270.1812316
46.75	1058	270.0389031
46.76	1036	269.8301547
46.77	1065	270.1053231
46.78	1071	270.1622545
46.79	1066	270.1148117
46.8	1071	270.1622545
46.81	1088	270.3235601
46.82	1111	270.5417971
46.83	1088	270.3235601
46.84	1042	269.8870861
46.85	1026	269.735269
46.86	1046	269.9250403
46.87	1063	270.086346
46.88	1056	270.019926
46.89	1048	269.9440175
46.9	1047	269.9345289
46.91	1045	269.9155518
46.92	1069	270.1432774
46.93	1061	270.0673688
46.94	1077	270.2191859
46.95	1131	270.7315685
46.96	1120	270.6271942
46.97	1073	270.1812316
46.98	1046	269.9250403
46.99	1060	270.0578803
47	1078	270.2286744
47.01	1086	270.304583
47.02	1087	270.3140715
47.03	1074	270.1907202
47.04	1059	270.0483917
47.05	1067	270.1243002
47.06	1089	270.3330487
47.07	1085	270.2950944
47.08	1060	270.0578803
47.09	1047	269.9345289
47.1	1058	270.0389031
47.11	1064	270.0958345
47.12	1056	270.019926
47.13	1062	270.0768574
47.14	1079	270.238163
47.15	1082	270.2666287
47.16	1085	270.2950944
47.17	1096	270.3994686
47.18	1097	270.4089572
47.19	1093	270.3710029
47.2	1075	270.2002087
47.21	1067	270.1243002
47.22	1076	270.2096973
47.23	1078	270.2286744
47.24	1082	270.2666287
47.25	1078	270.2286744
47.26	1059	270.0483917
47.27	1075	270.2002087
47.28	1100	270.4374229
47.29	1063	270.086346
47.3	1036	269.8301547
47.31	1031	269.7827118
47.32	1048	269.9440175
47.33	1069	270.1432774
47.34	1069	270.1432774
47.35	1076	270.2096973
47.36	1067	270.1243002
47.37	1061	270.0673688
47.38	1048	269.9440175
47.39	1043	269.8965746
47.4	1074	270.1907202
47.41	1090	270.3425372
47.42	1087	270.3140715
47.43	1095	270.3899801
47.44	1107	270.5038429
47.45	1091	270.3520258
47.46	1075	270.2002087
47.47	1073	270.1812316
47.48	1105	270.4848657
47.49	1140	270.8169656
47.5	1135	270.7695227
47.51	1090	270.3425372
47.52	1080	270.2476516
47.53	1098	270.4184458
47.54	1094	270.3804915
47.55	1096	270.3994686
47.56	1080	270.2476516
47.57	1078	270.2286744
47.58	1079	270.238163
47.59	1065	270.1053231
47.6	1063	270.086346
47.61	1091	270.3520258
47.62	1096	270.3994686
47.63	1081	270.2571401
47.64	1068	270.1337888
47.65	1058	270.0389031
47.66	1044	269.9060632
47.67	1051	269.9724832
47.68	1075	270.2002087
47.69	1069	270.1432774
47.7	1083	270.2761173
47.71	1122	270.6461714
47.72	1108	270.5133314
47.73	1098	270.4184458
47.74	1134	270.7600342
47.75	1116	270.58924
47.76	1074	270.1907202
47.77	1066	270.1148117
47.78	1062	270.0768574
47.79	1078	270.2286744
47.8	1108	270.5133314
47.81	1128	270.7031028
47.82	1110	270.5323086
47.83	1097	270.4089572
47.84	1091	270.3520258
47.85	1103	270.4658886
47.86	1105	270.4848657
47.87	1107	270.5038429
47.88	1124	270.6651485
47.89	1127	270.6936142
47.9	1092	270.3615144
47.91	1079	270.238163
47.92	1086	270.304583
47.93	1096	270.3994686
47.94	1110	270.5323086
47.95	1109	270.52282
47.96	1112	270.5512857
47.97	1112	270.5512857
47.98	1094	270.3804915
47.99	1085	270.2950944
48	1074	270.1907202
48.01	1088	270.3235601
48.02	1103	270.4658886
48.03	1067	270.1243002
48.04	1064	270.0958345
48.05	1079	270.238163
48.06	1076	270.2096973
48.07	1093	270.3710029
48.08	1096	270.3994686
48.09	1097	270.4089572
48.1	1093	270.3710029
48.11	1091	270.3520258
48.12	1101	270.4469115
48.13	1125	270.6746371
48.14	1142	270.8359427
48.15	1104	270.4753772
48.16	1089	270.3330487
48.17	1098	270.4184458
48.18	1084	270.2856058
48.19	1084	270.2856058
48.2	1085	270.2950944
48.21	1075	270.2002087
48.22	1089	270.3330487
48.23	1137	270.7884999
48.24	1123	270.6556599
48.25	1114	270.5702628
48.26	1105	270.4848657
48.27	1118	270.6082171
48.28	1136	270.7790113
48.29	1135	270.7695227
48.3	1114	270.5702628
48.31	1108	270.5133314
48.32	1118	270.6082171
48.33	1129	270.7125913
48.34	1116	270.58924
48.35	1119	270.6177057
48.36	1142	270.8359427
48.37	1135	270.7695227
48.38	1069	270.1432774
48.39	1066	270.1148117
48.4	1108	270.5133314
48.41	1124	270.6651485
48.42	1114	270.5702628
48.43	1081	270.2571401
48.44	1091	270.3520258
48.45	1123	270.6556599
48.46	1148	270.8928741
48.47	1166	271.0636683
48.48	1191	271.3008824
48.49	1195	271.3388367
48.5	1175	271.1490654
48.51	1169	271.092134
48.52	1150	270.9118512
48.53	1154	270.9498055
48.54	1128	270.7031028
48.55	1118	270.6082171
48.56	1101	270.4469115
48.57	1107	270.5038429
48.58	1124	270.6651485
48.59	1137	270.7884999
48.6	1133	270.7505456
48.61	1130	270.7220799
48.62	1134	270.7600342
48.63	1132	270.741057
48.64	1088	270.3235601
48.65	1116	270.58924
48.66	1139	270.807477
48.67	1120	270.6271942
48.68	1101	270.4469115
48.69	1105	270.4848657
48.7	1101	270.4469115
48.71	1105	270.4848657
48.72	1113	270.5607743
48.73	1113	270.5607743
48.74	1123	270.6556599
48.75	1112	270.5512857
48.76	1091	270.3520258
48.77	1100	270.4374229
48.78	1113	270.5607743
48.79	1107	270.5038429
48.8	1089	270.3330487
48.81	1084	270.2856058
48.82	1086	270.304583
48.83	1112	270.5512857
48.84	1154	270.9498055
48.85	1132	270.741057
48.86	1120	270.6271942
48.87	1113	270.5607743
48.88	1091	270.3520258
48.89	1109	270.52282
48.9	1091	270.3520258
48.91	1121	270.6366828
48.92	1138	270.7979884
48.93	1150	270.9118512
48.94	1131	270.7315685
48.95	1101	270.4469115
48.96	1120	270.6271942
48.97	1105	270.4848657
48.98	1102	270.4564
48.99	1122	270.6461714
49	1161	271.0162254
49.01	1162	271.025714
49.02	1142	270.8359427
49.03	1105	270.4848657
49.04	1171	271.1111111
49.05	1134	270.7600342
49.06	1129	270.7125913
49.07	1149	270.9023627
49.08	1137	270.7884999
49.09	1156	270.9687826
49.1	1175	271.1490654
49.11	1177	271.1680425
49.12	1127	270.6936142
49.13	1137	270.7884999
49.14	1175	271.1490654
49.15	1180	271.1965082
49.16	1189	271.2819053
49.17	1187	271.2629282
49.18	1183	271.2249739
49.19	1161	271.0162254
49.2	1153	270.9403169
49.21	1178	271.1775311
49.22	1191	271.3008824
49.23	1194	271.3293481
49.24	1198	271.3673024
49.25	1239	271.7563336
49.26	1243	271.7942879
49.27	1203	271.4147452
49.28	1227	271.6424708
49.29	1237	271.7373565
49.3	1269	272.0409906
49.31	1275	272.097922
49.32	1238	271.7468451
49.33	1278	272.1263877
49.34	1339	272.7051902
49.35	1385	273.1416643
49.36	1497	274.2043837
49.37	1634	275.5043173
49.38	1777	276.8611823
49.39	2027	279.2333238
49.4	2437	283.123636
49.41	2972	288.200019
49.42	3588	294.0449758
49.43	4271	300.5256666
49.44	4942	306.8924945
49.45	5395	311.1908151
49.46	5525	312.4243287
49.47	5271	310.0142328
49.48	4693	304.5298415
49.49	3989	297.8498909
49.5	3332	291.6159028
49.51	2767	286.2548629
49.52	2469	283.4272701
49.53	2388	282.6586963
49.54	2429	283.0477275
49.55	2571	284.3951039
49.56	2822	286.776734
49.57	3125	289.6517696
49.58	3375	292.0239112
49.59	3475	292.9727678
49.6	3343	291.7202771
49.61	3027	288.7218901
49.62	2597	284.6418066
49.63	2232	281.1784799
49.64	1906	278.0852073
49.65	1679	275.9313028
49.66	1497	274.2043837
49.67	1412	273.3978556
49.68	1366	272.9613815
49.69	1327	272.5913275
49.7	1276	272.1074106
49.71	1220	271.5760509
49.72	1214	271.5191195
49.73	1229	271.661448
49.74	1217	271.5475852
49.75	1207	271.4526995
49.76	1228	271.6519594
49.77	1208	271.4621881
49.78	1191	271.3008824
49.79	1172	271.1205997
49.8	1153	270.9403169
49.81	1180	271.1965082
49.82	1201	271.3957681
49.83	1165	271.0541797
49.84	1150	270.9118512
49.85	1126	270.6841256
49.86	1134	270.7600342
49.87	1155	270.9592941
49.88	1151	270.9213398
49.89	1172	271.1205997
49.9	1145	270.8644084
49.91	1124	270.6651485
49.92	1128	270.7031028
49.93	1161	271.0162254
49.94	1213	271.5096309
49.95	1129	270.7125913
49.96	1119	270.6177057
49.97	1127	270.6936142
49.98	1118	270.6082171
49.99	1112	270.5512857
50	1127	270.6936142
50.01	1134	270.7600342
50.02	1105	270.4848657
50.03	1112	270.5512857
50.04	1134	270.7600342
50.05	1104	270.4753772
50.06	1106	270.4943543
50.07	1131	270.7315685
50.08	1128	270.7031028
50.09	1146	270.873897
50.1	1154	270.9498055
50.11	1134	270.7600342
50.12	1177	271.1680425
50.13	1194	271.3293481
50.14	1173	271.1300882
50.15	1157	270.9782712
50.16	1130	270.7220799
50.17	1127	270.6936142
50.18	1107	270.5038429
50.19	1116	270.58924
50.2	1113	270.5607743
50.21	1148	270.8928741
50.22	1129	270.7125913
50.23	1130	270.7220799
50.24	1135	270.7695227
50.25	1110	270.5323086
50.26	1118	270.6082171
50.27	1146	270.873897
50.28	1139	270.807477
50.29	1113	270.5607743
50.3	1119	270.6177057
50.31	1105	270.4848657
50.32	1098	270.4184458
50.33	1126	270.6841256
50.34	1113	270.5607743
50.35	1148	270.8928741
50.36	1164	271.0446911
50.37	1133	270.7505456
50.38	1085	270.2950944
50.39	1099	270.4279343
50.4	1079	270.238163
50.41	1064	270.0958345
50.42	1115	270.5797514
50.43	1123	270.6556599
50.44	1150	270.9118512
50.45	1143	270.8454313
50.46	1088	270.3235601
50.47	1128	270.7031028
50.48	1133	270.7505456
50.49	1117	270.5987285
50.5	1147	270.8833855
50.51	1156	270.9687826
50.52	1170	271.1016225
50.53	1173	271.1300882
50.54	1155	270.9592941
50.55	1164	271.0446911
50.56	1143	270.8454313
50.57	1115	270.5797514
50.58	1121	270.6366828
50.59	1113	270.5607743
50.6	1107	270.5038429
50.61	1164	271.0446911
50.62	1137	270.7884999
50.63	1117	270.5987285
50.64	1108	270.5133314
50.65	1127	270.6936142
50.66	1099	270.4279343
50.67	1109	270.52282
50.68	1157	270.9782712
50.69	1156	270.9687826
50.7	1129	270.7125913
50.71	1091	270.3520258
50.72	1091	270.3520258
50.73	1129	270.7125913
50.74	1142	270.8359427
50.75	1108	270.5133314
50.76	1099	270.4279343
50.77	1112	270.5512857
50.78	1083	270.2761173
50.79	1109	270.52282
50.8	1130	270.7220799
50.81	1126	270.6841256
50.82	1153	270.9403169
50.83	1141	270.8264541
50.84	1104	270.4753772
50.85	1100	270.4374229
50.86	1136	270.7790113
50.87	1175	271.1490654
50.88	1167	271.0731568
50.89	1154	270.9498055
50.9	1118	270.6082171
50.91	1106	270.4943543
50.92	1125	270.6746371
50.93	1155	270.9592941
50.94	1131	270.7315685
50.95	1100	270.4374229
50.96	1085	270.2950944
50.97	1160	271.0067369
50.98	1130	270.7220799
50.99	1091	270.3520258
51	1116	270.58924
51.01	1132	270.741057
51.02	1132	270.741057
51.03	1122	270.6461714
51.04	1134	270.7600342
51.05	1146	270.873897
51.06	1145	270.8644084
51.07	1099	270.4279343
51.08	1119	270.6177057
51.09	1175	271.1490654
51.1	1135	270.7695227
51.11	1103	270.4658886
51.12	1108	270.5133314
51.13	1096	270.3994686
51.14	1143	270.8454313
51.15	1103	270.4658886
51.16	1142	270.8359427
51.17	1134	270.7600342
51.18	1146	270.873897
51.19	1176	271.1585539
51.2	1189	271.2819053
51.21	1150	270.9118512
51.22	1118	270.6082171
51.23	1109	270.52282
51.24	1139	270.807477
51.25	1111	270.5417971
51.26	1132	270.741057
51.27	1170	271.1016225
51.28	1146	270.873897
51.29	1137	270.7884999
51.3	1138	270.7979884
51.31	1164	271.0446911
51.32	1188	271.2724167
51.33	1160	271.0067369
51.34	1146	270.873897
51.35	1145	270.8644084
51.36	1168	271.0826454
51.37	1134	270.7600342
51.38	1124	270.6651485
51.39	1149	270.9023627
51.4	1158	270.9877597
51.41	1205	271.4337224
51.42	1194	271.3293481
51.43	1173	271.1300882
51.44	1128	270.7031028
51.45	1171	271.1111111
51.46	1172	271.1205997
51.47	1135	270.7695227
51.48	1110	270.5323086
51.49	1115	270.5797514
51.5	1131	270.7315685
51.51	1097	270.4089572
51.52	1108	270.5133314
51.53	1112	270.5512857
51.54	1126	270.6841256
51.55	1153	270.9403169
51.56	1134	270.7600342
51.57	1112	270.5512857
51.58	1095	270.3899801
51.59	1156	270.9687826
51.6	1141	270.8264541
51.61	1116	270.58924
51.62	1134	270.7600342
51.63	1135	270.7695227
51.64	1173	271.1300882
51.65	1162	271.025714
51.66	1149	270.9023627
51.67	1138	270.7979884
51.68	1124	270.6651485
51.69	1122	270.6461714
51.7	1126	270.6841256
51.71	1155	270.9592941
51.72	1176	271.1585539
51.73	1152	270.9308284
51.74	1156	270.9687826
51.75	1159	270.9972483
51.76	1126	270.6841256
51.77	1121	270.6366828
51.78	1170	271.1016225
51.79	1140	270.8169656
51.8	1126	270.6841256
51.81	1133	270.7505456
51.82	1144	270.8549198
51.83	1168	271.0826454
51.84	1160	271.0067369
51.85	1144	270.8549198
51.86	1174	271.1395768
51.87	1183	271.2249739
51.88	1156	270.9687826
51.89	1156	270.9687826
51.9	1162	271.025714
51.91	1157	270.9782712
51.92	1113	270.5607743
51.93	1138	270.7979884
51.94	1157	270.9782712
51.95	1114	270.5702628
51.96	1099	270.4279343
51.97	1112	270.5512857
51.98	1142	270.8359427
51.99	1158	270.9877597
52	1129	270.7125913
52.01	1155	270.9592941
52.02	1141	270.8264541
52.03	1101	270.4469115
52.04	1134	270.7600342
52.05	1121	270.6366828
52.06	1135	270.7695227
52.07	1127	270.6936142
52.08	1166	271.0636683
52.09	1176	271.1585539
52.1	1124	270.6651485
52.11	1144	270.8549198
52.12	1163	271.0352026
52.13	1165	271.0541797
52.14	1172	271.1205997
52.15	1129	270.7125913
52.16	1119	270.6177057
52.17	1133	270.7505456
52.18	1151	270.9213398
52.19	1163	271.0352026
52.2	1156	270.9687826
52.21	1166	271.0636683
52.22	1185	271.243951
52.23	1167	271.0731568
52.24	1134	270.7600342
52.25	1140	270.8169656
52.26	1199	271.376791
52.27	1219	271.5665623
52.28	1188	271.2724167
52.29	1147	270.8833855
52.3	1163	271.0352026
52.31	1144	270.8549198
52.32	1119	270.6177057
52.33	1168	271.0826454
52.34	1173	271.1300882
52.35	1153	270.9403169
52.36	1172	271.1205997
52.37	1164	271.0446911
52.38	1148	270.8928741
52.39	1130	270.7220799
52.4	1122	270.6461714
52.41	1123	270.6556599
52.42	1124	270.6651485
52.43	1168	271.0826454
52.44	1138	270.7979884
52.45	1165	271.0541797
52.46	1166	271.0636683
52.47	1170	271.1016225
52.48	1158	270.9877597
52.49	1165	271.0541797
52.5	1154	270.9498055
52.51	1187	271.2629282
52.52	1154	270.9498055
52.53	1149	270.9023627
52.54	1166	271.0636683
52.55	1169	271.092134
52.56	1163	271.0352026
52.57	1142	270.8359427
52.58	1122	270.6461714
52.59	1133	270.7505456
52.6	1193	271.3198596
52.61	1162	271.025714
52.62	1147	270.8833855
52.63	1164	271.0446911
52.64	1187	271.2629282
52.65	1178	271.1775311
52.66	1170	271.1016225
52.67	1209	271.4716766
52.68	1216	271.5380966
52.69	1171	271.1111111
52.7	1197	271.3578138
52.71	1202	271.4052567
52.72	1202	271.4052567
52.73	1188	271.2724167
52.74	1184	271.2344625
52.75	1195	271.3388367
52.76	1173	271.1300882
52.77	1147	270.8833855
52.78	1146	270.873897
52.79	1173	271.1300882
52.8	1194	271.3293481
52.81	1167	271.0731568
52.82	1181	271.2059968
52.83	1174	271.1395768
52.84	1154	270.9498055
52.85	1161	271.0162254
52.86	1154	270.9498055
52.87	1174	271.1395768
52.88	1187	271.2629282
52.89	1192	271.310371
52.9	1205	271.4337224
52.91	1200	271.3862795
52.92	1187	271.2629282
52.93	1183	271.2249739
52.94	1171	271.1111111
52.95	1177	271.1680425
52.96	1174	271.1395768
52.97	1167	271.0731568
52.98	1163	271.0352026
52.99	1165	271.0541797
53	1160	271.0067369
53.01	1172	271.1205997
53.02	1177	271.1680425
53.03	1186	271.2534396
53.04	1190	271.2913939
53.05	1200	271.3862795
53.06	1163	271.0352026
53.07	1160	271.0067369
53.08	1191	271.3008824
53.09	1218	271.5570737
53.1	1201	271.3957681
53.11	1204	271.4242338
53.12	1184	271.2344625
53.13	1174	271.1395768
53.14	1167	271.0731568
53.15	1165	271.0541797
53.16	1154	270.9498055
53.17	1177	271.1680425
53.18	1183	271.2249739
53.19	1164	271.0446911
53.2	1192	271.310371
53.21	1193	271.3198596
53.22	1181	271.2059968
53.23	1169	271.092134
53.24	1182	271.2154853
53.25	1157	270.9782712
53.26	1158	270.9877597
53.27	1165	271.0541797
53.28	1185	271.243951
53.29	1214	271.5191195
53.3	1215	271.528608
53.31	1199	271.376791
53.32	1195	271.3388367
53.33	1214	271.5191195
53.34	1199	271.376791
53.35	1162	271.025714
53.36	1162	271.025714
53.37	1195	271.3388367
53.38	1211	271.4906538
53.39	1204	271.4242338
53.4	1209	271.4716766
53.41	1217	271.5475852
53.42	1225	271.6234937
53.43	1209	271.4716766
53.44	1184	271.2344625
53.45	1183	271.2249739
53.46	1187	271.2629282
53.47	1194	271.3293481
53.48	1186	271.2534396
53.49	1171	271.1111111
53.5	1181	271.2059968
53.51	1180	271.1965082
53.52	1172	271.1205997
53.53	1181	271.2059968
53.54	1188	271.2724167
53.55	1227	271.6424708
53.56	1240	271.7658222
53.57	1222	271.595028
53.58	1208	271.4621881
53.59	1218	271.5570737
53.6	1247	271.8322421
53.61	1227	271.6424708
53.62	1200	271.3862795
53.63	1208	271.4621881
53.64	1221	271.5855394
53.65	1222	271.595028
53.66	1216	271.5380966
53.67	1244	271.8037764
53.68	1264	271.9935478
53.69	1236	271.7278679
53.7	1254	271.8986621
53.71	1268	272.031502
53.72	1268	272.031502
53.73	1270	272.0504792
53.74	1333	272.6482588
53.75	1355	272.8570073
53.76	1374	273.0372901
53.77	1407	273.3504128
53.78	1466	273.9102382
53.79	1493	274.1664295
53.8	1478	274.024101
53.81	1524	274.460575
53.82	1564	274.8401177
53.83	1588	275.0678432
53.84	1602	275.2006832
53.85	1564	274.8401177
53.86	1484	274.0810324
53.87	1448	273.739444
53.88	1439	273.6540469
53.89	1441	273.673024
53.9	1427	273.5401841
53.91	1474	273.9861467
53.92	1514	274.3656893
53.93	1501	274.242338
53.94	1552	274.7262549
53.95	1620	275.3714774
53.96	1702	276.1495398
53.97	1795	277.0319765
53.98	1923	278.246513
53.99	2093	279.8595692
54	2371	282.4973906
54.01	2763	286.2169086
54.02	3272	291.0465889
54.03	4042	298.3527849
54.04	5091	308.3062909
54.05	6132	318.1838884
54.06	6770	324.2375937
54.07	6992	326.3440554
54.08	6802	324.5412278
54.09	6199	318.8196224
54.1	5435	311.5703577
54.11	4566	303.3247936
54.12	3711	295.2120695
54.13	3079	289.2152956
54.14	2715	285.7614574
54.15	2587	284.546921
54.16	2656	285.201632
54.17	2863	287.1657653
54.18	3193	290.2969921
54.19	3564	293.8172502
54.2	3910	297.1002941
54.21	4132	299.2067559
54.22	4134	299.225733
54.23	3930	297.2900655
54.24	3551	293.6938989
54.25	3114	289.5473954
54.26	2693	285.552709
54.27	2317	281.9850081
54.28	2020	279.1669039
54.29	1827	277.3356106
54.3	1683	275.969257
54.31	1559	274.7926748
54.32	1489	274.1284752
54.33	1453	273.7868868
54.34	1415	273.4263213
54.35	1374	273.0372901
54.36	1353	272.8380302
54.37	1332	272.6387703
54.38	1303	272.3636019
54.39	1289	272.2307619
54.4	1297	272.3066705
54.41	1291	272.2497391
54.42	1275	272.097922
54.43	1276	272.1074106
54.44	1287	272.2117848
54.45	1282	272.164342
54.46	1281	272.1548534
54.47	1275	272.097922
54.48	1266	272.0125249
54.49	1271	272.0599677
54.5	1261	271.9650821
54.51	1224	271.6140051
54.52	1189	271.2819053
54.53	1219	271.5665623
54.54	1257	271.9271278
54.55	1244	271.8037764
54.56	1248	271.8417307
54.57	1240	271.7658222
54.58	1221	271.5855394
54.59	1225	271.6234937
54.6	1231	271.6804251
54.61	1234	271.7088908
54.62	1230	271.6709365
54.63	1208	271.4621881
54.64	1206	271.4432109
54.65	1232	271.6899137
54.66	1241	271.7753108
54.67	1224	271.6140051
54.68	1187	271.2629282
54.69	1173	271.1300882
54.7	1192	271.310371
54.71	1211	271.4906538
54.72	1209	271.4716766
54.73	1205	271.4337224
54.74	1206	271.4432109
54.75	1205	271.4337224
54.76	1183	271.2249739
54.77	1181	271.2059968
54.78	1224	271.6140051
54.79	1249	271.8512193
54.8	1243	271.7942879
54.81	1230	271.6709365
54.82	1205	271.4337224
54.83	1182	271.2154853
54.84	1193	271.3198596
54.85	1199	271.376791
54.86	1194	271.3293481
54.87	1206	271.4432109
54.88	1226	271.6329823
54.89	1239	271.7563336
54.9	1232	271.6899137
54.91	1212	271.5001423
54.92	1193	271.3198596
54.93	1174	271.1395768
54.94	1168	271.0826454
54.95	1218	271.5570737
54.96	1239	271.7563336
54.97	1195	271.3388367
54.98	1192	271.310371
54.99	1216	271.5380966
55	1218	271.5570737
55.01	1207	271.4526995
55.02	1197	271.3578138
55.03	1187	271.2629282
55.04	1180	271.1965082
55.05	1202	271.4052567
55.06	1212	271.5001423
55.07	1193	271.3198596
55.08	1220	271.5760509
55.09	1262	271.9745706
55.1	1238	271.7468451
55.11	1193	271.3198596
55.12	1184	271.2344625
55.13	1193	271.3198596
55.14	1207	271.4526995
55.15	1210	271.4811652
55.16	1209	271.4716766
55.17	1209	271.4716766
55.18	1209	271.4716766
55.19	1216	271.5380966
55.2	1216	271.5380966
55.21	1223	271.6045166
55.22	1221	271.5855394
55.23	1206	271.4432109
55.24	1206	271.4432109
55.25	1211	271.4906538
55.26	1201	271.3957681
55.27	1200	271.3862795
55.28	1189	271.2819053
55.29	1188	271.2724167
55.3	1205	271.4337224
55.31	1212	271.5001423
55.32	1199	271.376791
55.33	1197	271.3578138
55.34	1206	271.4432109
55.35	1207	271.4526995
55.36	1192	271.310371
55.37	1188	271.2724167
55.38	1215	271.528608
55.39	1258	271.9366164
55.4	1259	271.9461049
55.41	1235	271.7183794
55.42	1218	271.5570737
55.43	1218	271.5570737
55.44	1227	271.6424708
55.45	1209	271.4716766
55.46	1224	271.6140051
55.47	1249	271.8512193
55.48	1246	271.8227536
55.49	1248	271.8417307
55.5	1247	271.8322421
55.51	1232	271.6899137
55.52	1207	271.4526995
55.53	1208	271.4621881
55.54	1229	271.661448
55.55	1217	271.5475852
55.56	1187	271.2629282
55.57	1188	271.2724167
55.58	1213	271.5096309
55.59	1231	271.6804251
55.6	1239	271.7563336
55.61	1224	271.6140051
55.62	1203	271.4147452
55.63	1201	271.3957681
55.64	1193	271.3198596
55.65	1201	271.3957681
55.66	1206	271.4432109
55.67	1227	271.6424708
55.68	1231	271.6804251
55.69	1240	271.7658222
55.7	1230	271.6709365
55.71	1210	271.4811652
55.72	1199	271.376791
55.73	1190	271.2913939
55.74	1214	271.5191195
55.75	1237	271.7373565
55.76	1240	271.7658222
55.77	1230	271.6709365
55.78	1205	271.4337224
55.79	1198	271.3673024
55.8	1210	271.4811652
55.81	1241	271.7753108
55.82	1237	271.7373565
55.83	1201	271.3957681
55.84	1203	271.4147452
55.85	1260	271.9555935
55.86	1279	272.1358763
55.87	1254	271.8986621
55.88	1213	271.5096309
55.89	1217	271.5475852
55.9	1235	271.7183794
55.91	1241	271.7753108
55.92	1211	271.4906538
55.93	1237	271.7373565
55.94	1243	271.7942879
55.95	1208	271.4621881
55.96	1210	271.4811652
55.97	1222	271.595028
55.98	1223	271.6045166
55.99	1234	271.7088908
56	1273	272.0789449
56.01	1264	271.9935478
56.02	1217	271.5475852
56.03	1173	271.1300882
56.04	1197	271.3578138
56.05	1236	271.7278679
56.06	1235	271.7183794
56.07	1266	272.0125249
56.08	1276	272.1074106
56.09	1256	271.9176392
56.1	1258	271.9366164
56.11	1256	271.9176392
56.12	1297	272.3066705
56.13	1307	272.4015561
56.14	1279	272.1358763
56.15	1258	271.9366164
56.16	1255	271.9081507
56.17	1251	271.8701964
56.18	1263	271.9840592
56.19	1273	272.0789449
56.2	1254	271.8986621
56.21	1246	271.8227536
56.22	1263	271.9840592
56.23	1248	271.8417307
56.24	1204	271.4242338
56.25	1222	271.595028
56.26	1278	272.1263877
56.27	1288	272.2212734
56.28	1312	272.448999
56.29	1264	271.9935478
56.3	1250	271.8607078
56.31	1245	271.813265
56.32	1266	272.0125249
56.33	1259	271.9461049
56.34	1221	271.5855394
56.35	1203	271.4147452
56.36	1213	271.5096309
56.37	1188	271.2724167
56.38	1197	271.3578138
56.39	1223	271.6045166
56.4	1204	271.4242338
56.41	1194	271.3293481
56.42	1217	271.5475852
56.43	1257	271.9271278
56.44	1242	271.7847993
56.45	1239	271.7563336
56.46	1244	271.8037764
56.47	1239	271.7563336
56.48	1242	271.7847993
56.49	1214	271.5191195
56.5	1217	271.5475852
56.51	1204	271.4242338
56.52	1231	271.6804251
56.53	1229	271.661448
56.54	1226	271.6329823
56.55	1248	271.8417307
56.56	1240	271.7658222
56.57	1217	271.5475852
56.58	1220	271.5760509
56.59	1219	271.5665623
56.6	1181	271.2059968
56.61	1177	271.1680425
56.62	1231	271.6804251
56.63	1273	272.0789449
56.64	1222	271.595028
56.65	1205	271.4337224
56.66	1198	271.3673024
56.67	1228	271.6519594
56.68	1224	271.6140051
56.69	1227	271.6424708
56.7	1219	271.5665623
56.71	1228	271.6519594
56.72	1236	271.7278679
56.73	1272	272.0694563
56.74	1257	271.9271278
56.75	1234	271.7088908
56.76	1237	271.7373565
56.77	1224	271.6140051
56.78	1230	271.6709365
56.79	1246	271.8227536
56.8	1246	271.8227536
56.81	1244	271.8037764
56.82	1229	271.661448
56.83	1212	271.5001423
56.84	1226	271.6329823
56.85	1249	271.8512193
56.86	1237	271.7373565
56.87	1228	271.6519594
56.88	1245	271.813265
56.89	1235	271.7183794
56.9	1243	271.7942879
56.91	1224	271.6140051
56.92	1204	271.4242338
56.93	1238	271.7468451
56.94	1222	271.595028
56.95	1236	271.7278679
56.96	1198	271.3673024
56.97	1215	271.528608
56.98	1275	272.097922
56.99	1267	272.0220135
57	1296	272.2971819
57.01	1285	272.1928077
57.02	1240	271.7658222
57.03	1229	271.661448
57.04	1242	271.7847993
57.05	1276	272.1074106
57.06	1287	272.2117848
57.07	1271	272.0599677
57.08	1256	271.9176392
57.09	1246	271.8227536
57.1	1265	272.0030363
57.11	1321	272.5343961
57.12	1298	272.316159
57.13	1293	272.2687162
57.14	1302	272.3541133
57.15	1322	272.5438846
57.16	1312	272.448999
57.17	1282	272.164342
57.18	1309	272.4205333
57.19	1358	272.885473
57.2	1318	272.5059304
57.21	1285	272.1928077
57.22	1327	272.5913275
57.23	1340	272.7146788
57.24	1333	272.6482588
57.25	1377	273.0657558
57.26	1404	273.3219471
57.27	1381	273.10371
57.28	1436	273.6255812
57.29	1518	274.4036436
57.3	1559	274.7926748
57.31	1610	275.2765917
57.32	1746	276.5670367
57.33	1887	277.9049246
57.34	1983	278.8158269
57.35	2080	279.7362179
57.36	2115	280.0683177
57.37	2123	280.1442262
57.38	2198	280.8558687
57.39	2220	281.0646171
57.4	2238	281.2354113
57.41	2183	280.7135402
57.42	2086	279.7931493
57.43	2025	279.2143467
57.44	1990	278.8822469
57.45	1945	278.4552614
57.46	1875	277.7910618
57.47	1832	277.3830534
57.48	1818	277.2502135
57.49	1778	276.8706708
57.5	1812	277.1932821
57.51	1856	277.610779
57.52	1861	277.6582218
57.53	1934	278.3508872
57.54	1967	278.6640099
57.55	1994	278.9202012
57.56	2109	280.0113863
57.57	2261	281.4536484
57.58	2426	283.0192618
57.59	2488	283.6075529
57.6	2562	284.3097068
57.61	2521	283.9206756
57.62	2447	283.2185217
57.63	2335	282.1558023
57.64	2210	280.9697315
57.65	2044	279.3946295
57.66	1895	277.9808331
57.67	1743	276.538571
57.68	1618	275.3525002
57.69	1593	275.1152861
57.7	1613	275.3050574
57.71	1604	275.2196603
57.72	1617	275.3430117
57.73	1642	275.5802258
57.74	1760	276.6998766
57.75	1810	277.174305
57.76	1833	277.392542
57.77	1868	277.7246418
57.78	1793	277.0129993
57.79	1701	276.1400512
57.8	1618	275.3525002
57.81	1533	274.5459721
57.82	1455	273.8058639
57.83	1428	273.5496726
57.84	1393	273.2175728
57.85	1360	272.9044501
57.86	1367	272.9708701
57.87	1343	272.7431445
57.88	1279	272.1358763
57.89	1290	272.2402505
57.9	1320	272.5249075
57.91	1285	272.1928077
57.92	1254	271.8986621
57.93	1277	272.1168991
57.94	1247	271.8322421
57.95	1243	271.7942879
57.96	1226	271.6329823
57.97	1252	271.879685
57.98	1282	272.164342
57.99	1271	272.0599677
58	1249	271.8512193
58.01	1249	271.8512193
58.02	1289	272.2307619
58.03	1249	271.8512193
58.04	1213	271.5096309
58.05	1239	271.7563336
58.06	1250	271.8607078
58.07	1236	271.7278679
58.08	1228	271.6519594
58.09	1246	271.8227536
58.1	1253	271.8891735
58.11	1244	271.8037764
58.12	1270	272.0504792
58.13	1249	271.8512193
58.14	1270	272.0504792
58.15	1277	272.1168991
58.16	1276	272.1074106
58.17	1262	271.9745706
58.18	1248	271.8417307
58.19	1251	271.8701964
58.2	1254	271.8986621
58.21	1253	271.8891735
58.22	1237	271.7373565
58.23	1235	271.7183794
58.24	1234	271.7088908
58.25	1247	271.8322421
58.26	1274	272.0884334
58.27	1313	272.4584875
58.28	1294	272.2782048
58.29	1281	272.1548534
58.3	1288	272.2212734
58.31	1311	272.4395104
58.32	1303	272.3636019
58.33	1275	272.097922
58.34	1270	272.0504792
58.35	1262	271.9745706
58.36	1221	271.5855394
58.37	1218	271.5570737
58.38	1255	271.9081507
58.39	1218	271.5570737
58.4	1216	271.5380966
58.41	1266	272.0125249
58.42	1284	272.1833191
58.43	1266	272.0125249
58.44	1286	272.2022962
58.45	1284	272.1833191
58.46	1249	271.8512193
58.47	1237	271.7373565
58.48	1254	271.8986621
58.49	1230	271.6709365
58.5	1212	271.5001423
58.51	1226	271.6329823
58.52	1250	271.8607078
58.53	1232	271.6899137
58.54	1187	271.2629282
58.55	1216	271.5380966
58.56	1241	271.7753108
58.57	1237	271.7373565
58.58	1244	271.8037764
58.59	1194	271.3293481
58.6	1181	271.2059968
58.61	1168	271.0826454
58.62	1228	271.6519594
58.63	1258	271.9366164
58.64	1256	271.9176392
58.65	1273	272.0789449
58.66	1241	271.7753108
58.67	1244	271.8037764
58.68	1246	271.8227536
58.69	1269	272.0409906
58.7	1262	271.9745706
58.71	1249	271.8512193
58.72	1252	271.879685
58.73	1238	271.7468451
58.74	1210	271.4811652
58.75	1232	271.6899137
58.76	1275	272.097922
58.77	1286	272.2022962
58.78	1254	271.8986621
58.79	1241	271.7753108
58.8	1238	271.7468451
58.81	1252	271.879685
58.82	1235	271.7183794
58.83	1235	271.7183794
58.84	1260	271.9555935
58.85	1253	271.8891735
58.86	1258	271.9366164
58.87	1248	271.8417307
58.88	1256	271.9176392
58.89	1273	272.0789449
58.9	1267	272.0220135
58.91	1261	271.9650821
58.92	1275	272.097922
58.93	1240	271.7658222
58.94	1248	271.8417307
58.95	1282	272.164342
58.96	1291	272.2497391
58.97	1307	272.4015561
58.98	1224	271.6140051
58.99	1236	271.7278679
59	1263	271.9840592
59.01	1257	271.9271278
59.02	1245	271.813265
59.03	1267	272.0220135
59.04	1252	271.879685
59.05	1225	271.6234937
59.06	1205	271.4337224
59.07	1214	271.5191195
59.08	1248	271.8417307
59.09	1236	271.7278679
59.1	1234	271.7088908
59.11	1214	271.5191195
59.12	1203	271.4147452
59.13	1238	271.7468451
59.14	1216	271.5380966
59.15	1183	271.2249739
59.16	1247	271.8322421
59.17	1268	272.031502
59.18	1221	271.5855394
59.19	1230	271.6709365
59.2	1269	272.0409906
59.21	1298	272.316159
59.22	1260	271.9555935
59.23	1274	272.0884334
59.24	1279	272.1358763
59.25	1278	272.1263877
59.26	1293	272.2687162
59.27	1297	272.3066705
59.28	1251	271.8701964
59.29	1264	271.9935478
59.3	1263	271.9840592
59.31	1266	272.0125249
59.32	1247	271.8322421
59.33	1237	271.7373565
59.34	1232	271.6899137
59.35	1229	271.661448
59.36	1256	271.9176392
59.37	1277	272.1168991
59.38	1251	271.8701964
59.39	1238	271.7468451
59.4	1254	271.8986621
59.41	1255	271.9081507
59.42	1221	271.5855394
59.43	1256	271.9176392
59.44	1229	271.661448
59.45	1231	271.6804251
59.46	1231	271.6804251
59.47	1256	271.9176392
59.48	1227	271.6424708
59.49	1237	271.7373565
59.5	1264	271.9935478
59.51	1230	271.6709365
59.52	1244	271.8037764
59.53	1256	271.9176392
59.54	1220	271.5760509
59.55	1228	271.6519594
59.56	1293	272.2687162
59.57	1274	272.0884334
59.58	1235	271.7183794
59.59	1240	271.7658222
59.6	1225	271.6234937
59.61	1232	271.6899137
59.62	1229	271.661448
59.63	1247	271.8322421
59.64	1280	272.1453648
59.65	1251	271.8701964
59.66	1270	272.0504792
59.67	1257	271.9271278
59.68	1274	272.0884334
59.69	1259	271.9461049
59.7	1247	271.8322421
59.71	1292	272.2592276
59.72	1257	271.9271278
59.73	1259	271.9461049
59.74	1277	272.1168991
59.75	1282	272.164342
59.76	1272	272.0694563
59.77	1276	272.1074106
59.78	1252	271.879685
59.79	1240	271.7658222
59.8	1243	271.7942879
59.81	1243	271.7942879
59.82	1257	271.9271278
59.83	1238	271.7468451
59.84	1259	271.9461049
59.85	1230	271.6709365
59.86	1282	272.164342
59.87	1301	272.3446247
59.88	1258	271.9366164
59.89	1274	272.0884334
59.9	1250	271.8607078
59.91	1289	272.2307619
59.92	1281	272.1548534
59.93	1202	271.4052567
59.94	1230	271.6709365
59.95	1251	271.8701964
59.96	1248	271.8417307
59.97	1258	271.9366164
59.98	1264	271.9935478
59.99	1283	272.1738305
60	1277	272.1168991
60.01	1261	271.9650821
60.02	1237	271.7373565
60.03	1265	272.0030363
60.04	1264	271.9935478
60.05	1249	271.8512193
60.06	1267	272.0220135
60.07	1288	272.2212734
60.08	1324	272.5628618
60.09	1304	272.3730904
60.1	1239	271.7563336
60.11	1253	271.8891735
60.12	1269	272.0409906
60.13	1266	272.0125249
60.14	1252	271.879685
60.15	1222	271.595028
60.16	1299	272.3256476
60.17	1321	272.5343961
60.18	1264	271.9935478
60.19	1260	271.9555935
60.2	1261	271.9650821
60.21	1280	272.1453648
60.22	1286	272.2022962
60.23	1271	272.0599677
60.24	1258	271.9366164
60.25	1287	272.2117848
60.26	1337	272.6862131
60.27	1271	272.0599677
60.28	1235	271.7183794
60.29	1260	271.9555935
60.3	1286	272.2022962
60.31	1295	272.2876933
60.32	1256	271.9176392
60.33	1277	272.1168991
60.34	1276	272.1074106
60.35	1206	271.4432109
60.36	1250	271.8607078
60.37	1275	272.097922
60.38	1299	272.3256476
60.39	1282	272.164342
60.4	1277	272.1168991
60.41	1286	272.2022962
60.42	1286	272.2022962
60.43	1275	272.097922
60.44	1259	271.9461049
60.45	1258	271.9366164
60.46	1277	272.1168991
60.47	1280	272.1453648
60.48	1251	271.8701964
60.49	1296	272.2971819
60.5	1291	272.2497391
60.51	1247	271.8322421
60.52	1254	271.8986621
60.53	1288	272.2212734
60.54	1269	272.0409906
60.55	1288	272.2212734
60.56	1327	272.5913275
60.57	1226	271.6329823
60.58	1265	272.0030363
60.59	1279	272.1358763
60.6	1273	272.0789449
60.61	1285	272.1928077
60.62	1303	272.3636019
60.63	1289	272.2307619
60.64	1261	271.9650821
60.65	1223	271.6045166
60.66	1173	271.1300882
60.67	1198	271.3673024
60.68	1260	271.9555935
60.69	1301	272.3446247
60.7	1220	271.5760509
60.71	1252	271.879685
60.72	1238	271.7468451
60.73	1243	271.7942879
60.74	1282	272.164342
60.75	1282	272.164342
60.76	1305	272.382579
60.77	1276	272.1074106
60.78	1259	271.9461049
60.79	1287	272.2117848
60.8	1257	271.9271278
60.81	1258	271.9366164
60.82	1290	272.2402505
60.83	1268	272.031502
60.84	1292	272.2592276
60.85	1273	272.0789449
60.86	1255	271.9081507
60.87	1278	272.1263877
60.88	1270	272.0504792
60.89	1224	271.6140051
60.9	1244	271.8037764
60.91	1301	272.3446247
60.92	1267	272.0220135
60.93	1249	271.8512193
60.94	1253	271.8891735
60.95	1266	272.0125249
60.96	1281	272.1548534
60.97	1291	272.2497391
60.98	1240	271.7658222
60.99	1263	271.9840592
61	1272	272.0694563
61.01	1296	272.2971819
61.02	1281	272.1548534
61.03	1283	272.1738305
61.04	1284	272.1833191
61.05	1317	272.4964418
61.06	1307	272.4015561
61.07	1301	272.3446247
61.08	1330	272.6197931
61.09	1308	272.4110447
61.1	1327	272.5913275
61.11	1289	272.2307619
61.12	1280	272.1453648
61.13	1288	272.2212734
61.14	1273	272.0789449
61.15	1290	272.2402505
61.16	1271	272.0599677
61.17	1318	272.5059304
61.18	1295	272.2876933
61.19	1272	272.0694563
61.2	1264	271.9935478
61.21	1294	272.2782048
61.22	1292	272.2592276
61.23	1239	271.7563336
61.24	1291	272.2497391
61.25	1300	272.3351362
61.26	1290	272.2402505
61.27	1279	272.1358763
61.28	1246	271.8227536
61.29	1256	271.9176392
61.3	1280	272.1453648
61.31	1291	272.2497391
61.32	1309	272.4205333
61.33	1268	272.031502
61.34	1278	272.1263877
61.35	1284	272.1833191
61.36	1314	272.4679761
61.37	1312	272.448999
61.38	1292	272.2592276
61.39	1318	272.5059304
61.4	1292	272.2592276
61.41	1284	272.1833191
61.42	1261	271.9650821
61.43	1249	271.8512193
61.44	1261	271.9650821
61.45	1293	272.2687162
61.46	1265	272.0030363
61.47	1277	272.1168991
61.48	1273	272.0789449
61.49	1250	271.8607078
61.5	1278	272.1263877
61.51	1270	272.0504792
61.52	1251	271.8701964
61.53	1266	272.0125249
61.54	1286	272.2022962
61.55	1260	271.9555935
61.56	1301	272.3446247
61.57	1352	272.8285416
61.58	1310	272.4300218
61.59	1288	272.2212734
61.6	1284	272.1833191
61.61	1275	272.097922
61.62	1274	272.0884334
61.63	1259	271.9461049
61.64	1295	272.2876933
61.65	1336	272.6767245
61.66	1354	272.8475187
61.67	1300	272.3351362
61.68	1281	272.1548534
61.69	1310	272.4300218
61.7	1303	272.3636019
61.71	1278	272.1263877
61.72	1297	272.3066705
61.73	1305	272.382579
61.74	1305	272.382579
61.75	1293	272.2687162
61.76	1315	272.4774647
61.77	1357	272.8759844
61.78	1294	272.2782048
61.79	1248	271.8417307
61.8	1296	272.2971819
61.81	1345	272.7621216
61.82	1286	272.2022962
61.83	1241	271.7753108
61.84	1311	272.4395104
61.85	1292	272.2592276
61.86	1326	272.5818389
61.87	1321	272.5343961
61.88	1318	272.5059304
61.89	1357	272.8759844
61.9	1328	272.600816
61.91	1309	272.4205333
61.92	1305	272.382579
61.93	1280	272.1453648
61.94	1322	272.5438846
61.95	1306	272.3920676
61.96	1348	272.7905873
61.97	1396	273.2460385
61.98	1377	273.0657558
61.99	1313	272.4584875
62	1333	272.6482588
62.01	1324	272.5628618
62.02	1319	272.5154189
62.03	1401	273.2934814
62.04	1413	273.4073442
62.05	1385	273.1416643
62.06	1357	272.8759844
62.07	1322	272.5438846
62.08	1301	272.3446247
62.09	1388	273.17013
62.1	1389	273.1796186
62.11	1381	273.10371
62.12	1396	273.2460385
62.13	1374	273.0372901
62.14	1375	273.0467786
62.15	1405	273.3314356
62.16	1421	273.4832527
62.17	1375	273.0467786
62.18	1387	273.1606414
62.19	1394	273.2270614
62.2	1406	273.3409242
62.21	1392	273.2080843
62.22	1408	273.3599013
62.23	1462	273.8722839
62.24	1438	273.6445583
62.25	1456	273.8153525
62.26	1495	274.1854066
62.27	1509	274.3182465
62.28	1493	274.1664295
62.29	1497	274.2043837
62.3	1559	274.7926748
62.31	1581	275.0014233
62.32	1653	275.6846001
62.33	1884	277.8764589
62.34	2043	279.3851409
62.35	2251	281.3587627
62.36	2543	284.129424
62.37	2890	287.4219565
62.38	3377	292.0428883
62.39	4100	298.9031217
62.4	4695	304.5488187
62.41	5099	308.3821994
62.42	5412	311.3521207
62.43	5448	311.6937091
62.44	5178	309.1317962
62.45	4638	304.0079704
62.46	3903	297.0338742
62.47	3308	291.3881772
62.48	2808	286.6438941
62.49	2479	283.5221558
62.5	2263	281.4726255
62.51	2057	279.5179808
62.52	2054	279.4895151
62.53	2175	280.6376317
62.54	2277	281.6054654
62.55	2451	283.2564759
62.56	2679	285.4198691
62.57	2962	288.1051333
62.58	3173	290.1072208
62.59	3294	291.2553373
62.6	3373	292.0049341
62.61	3250	290.8378404
62.62	3008	288.5416074
62.63	2671	285.3439605
62.64	2402	282.7915362
62.65	2127	280.1821805
62.66	1932	278.33191
62.67	1789	276.9750451
62.68	1736	276.4721511
62.69	1664	275.7889743
62.7	1592	275.1057975
62.71	1509	274.3182465
62.72	1478	274.024101
62.73	1494	274.175918
62.74	1502	274.2518265
62.75	1472	273.9671696
62.76	1465	273.9007496
62.77	1449	273.7489325
62.78	1433	273.5971155
62.79	1448	273.739444
62.8	1446	273.7204668
62.81	1456	273.8153525
62.82	1473	273.9766581
62.83	1432	273.5876269
62.84	1441	273.673024
62.85	1442	273.6825126
62.86	1445	273.7109783
62.87	1467	273.9197267
62.88	1547	274.678812
62.89	1502	274.2518265
62.9	1513	274.3562008
62.91	1588	275.0678432
62.92	1648	275.6371572
62.93	1738	276.4911282
62.94	1824	277.3071449
62.95	1923	278.246513
62.96	2093	279.8595692
62.97	2256	281.4062055
62.98	2350	282.2981308
62.99	2443	283.1805674
63	2489	283.6170415
63.01	2506	283.7783471
63.02	2474	283.474713
63.03	2390	282.6776734
63.04	2298	281.8047253
63.05	2123	280.1442262
63.06	2032	279.2807667
63.07	1954	278.5406585
63.08	1851	277.5633362
63.09	1822	277.2881678
63.1	1777	276.8611823
63.11	1768	276.7757852
63.12	1827	277.3356106
63.13	1805	277.1268621
63.14	1812	277.1932821
63.15	1868	277.7246418
63.16	1923	278.246513
63.17	1963	278.6260556
63.18	1964	278.6355442
63.19	1928	278.2939558
63.2	1886	277.895436
63.21	1806	277.1363507
63.22	1740	276.5101053
63.23	1693	276.0641427
63.24	1623	275.3999431
63.25	1622	275.3904545
63.26	1590	275.0868204
63.27	1552	274.7262549
63.28	1471	273.957681
63.29	1485	274.0905209
63.3	1475	273.9956353
63.31	1410	273.3788785
63.32	1401	273.2934814
63.33	1382	273.1131986
63.34	1339	272.7051902
63.35	1360	272.9044501
63.36	1377	273.0657558
63.37	1389	273.1796186
63.38	1369	272.9898472
63.39	1358	272.885473
63.4	1396	273.2460385
63.41	1372	273.0183129
63.42	1342	272.7336559
63.43	1321	272.5343961
63.44	1364	272.9424044
63.45	1352	272.8285416
63.46	1304	272.3730904
63.47	1378	273.0752443
63.48	1372	273.0183129
63.49	1379	273.0847329
63.5	1343	272.7431445
63.51	1319	272.5154189
63.52	1332	272.6387703
63.53	1349	272.8000759
63.54	1350	272.8095645
63.55	1360	272.9044501
63.56	1387	273.1606414
63.57	1371	273.0088244
63.58	1363	272.9329158
63.59	1324	272.5628618
63.6	1332	272.6387703
63.61	1387	273.1606414
63.62	1345	272.7621216
63.63	1332	272.6387703
63.64	1370	272.9993358
63.65	1458	273.8343296
63.66	1434	273.606604
63.67	1379	273.0847329
63.68	1379	273.0847329
63.69	1404	273.3219471
63.7	1399	273.2745042
63.71	1382	273.1131986
63.72	1377	273.0657558
63.73	1405	273.3314356
63.74	1423	273.5022298
63.75	1424	273.5117184
63.76	1376	273.0562672
63.77	1382	273.1131986
63.78	1418	273.454787
63.79	1446	273.7204668
63.8	1445	273.7109783
63.81	1431	273.5781383
63.82	1459	273.8438182
63.83	1498	274.2138723
63.84	1493	274.1664295
63.85	1543	274.6408578
63.86	1618	275.3525002
63.87	1681	275.9502799
63.88	1829	277.3545877
63.89	1980	278.7873612
63.9	2141	280.3150204
63.91	2413	282.8959104
63.92	2744	286.0366259
63.93	3139	289.7846095
63.94	3601	294.1683272
63.95	4094	298.8461903
63.96	4555	303.2204194
63.97	4976	307.2151058
63.98	5214	309.4733846
63.99	5106	308.4486194
64	4821	305.744378
64.01	4299	300.7913464
64.02	3694	295.0507638
64.03	3174	290.1167094
64.04	2683	285.4578233
64.05	2385	282.6302306
64.06	2219	281.0551286
64.07	2109	280.0113863
64.08	2136	280.2675776
64.09	2137	280.2770661
64.1	2263	281.4726255
64.11	2442	283.1710788
64.12	2642	285.0687921
64.13	2901	287.5263308
64.14	3153	289.9174495
64.15	3286	291.1794288
64.16	3260	290.9327261
64.17	3235	290.6955119
64.18	3053	288.9685928
64.19	2745	286.0461144
64.2	2484	283.5695986
64.21	2202	280.8938229
64.22	1972	278.7114527
64.23	1806	277.1363507
64.24	1702	276.1495398
64.25	1616	275.3335231
64.26	1556	274.7642091
64.27	1525	274.4700636
64.28	1459	273.8438182
64.29	1456	273.8153525
64.3	1448	273.739444
64.31	1422	273.4927412
64.32	1415	273.4263213
64.33	1419	273.4642755
64.34	1411	273.388367
64.35	1426	273.5306955
64.36	1429	273.5591612
64.37	1391	273.1985957
64.38	1361	272.9139387
64.39	1374	273.0372901
64.4	1379	273.0847329
64.41	1365	272.951893
64.42	1358	272.885473
64.43	1381	273.10371
64.44	1376	273.0562672
64.45	1349	272.8000759
64.46	1345	272.7621216
64.47	1342	272.7336559
64.48	1361	272.9139387
64.49	1351	272.819053
64.5	1328	272.600816
64.51	1336	272.6767245
64.52	1386	273.1511529
64.53	1386	273.1511529
64.54	1342	272.7336559
64.55	1337	272.6862131
64.56	1363	272.9329158
64.57	1377	273.0657558
64.58	1377	273.0657558
64.59	1381	273.10371
64.6	1355	272.8570073
64.61	1362	272.9234273
64.62	1342	272.7336559
64.63	1356	272.8664959
64.64	1368	272.9803587
64.65	1338	272.6957017
64.66	1347	272.7810988
64.67	1358	272.885473
64.68	1343	272.7431445
64.69	1346	272.7716102
64.7	1362	272.9234273
64.71	1343	272.7431445
64.72	1320	272.5249075
64.73	1325	272.5723503
64.74	1340	272.7146788
64.75	1376	273.0562672
64.76	1375	273.0467786
64.77	1381	273.10371
64.78	1369	272.9898472
64.79	1336	272.6767245
64.8	1302	272.3541133
64.81	1292	272.2592276
64.82	1306	272.3920676
64.83	1319	272.5154189
64.84	1359	272.8949616
64.85	1342	272.7336559
64.86	1332	272.6387703
64.87	1365	272.951893
64.88	1357	272.8759844
64.89	1334	272.6577474
64.9	1328	272.600816
64.91	1362	272.9234273
64.92	1366	272.9613815
64.93	1321	272.5343961
64.94	1342	272.7336559
64.95	1335	272.667236
64.96	1349	272.8000759
64.97	1323	272.5533732
64.98	1304	272.3730904
64.99	1299	272.3256476
65	1310	272.4300218
65.01	1321	272.5343961
65.02	1285	272.1928077
65.03	1282	272.164342
65.04	1306	272.3920676
65.05	1328	272.600816
65.06	1338	272.6957017
65.07	1340	272.7146788
65.08	1362	272.9234273
65.09	1342	272.7336559
65.1	1326	272.5818389
65.11	1347	272.7810988
65.12	1330	272.6197931
65.13	1320	272.5249075
65.14	1313	272.4584875
65.15	1316	272.4869532
65.16	1324	272.5628618
65.17	1327	272.5913275
65.18	1323	272.5533732
65.19	1344	272.7526331
65.2	1317	272.4964418
65.21	1302	272.3541133
65.22	1276	272.1074106
65.23	1287	272.2117848
65.24	1337	272.6862131
65.25	1334	272.6577474
65.26	1317	272.4964418
65.27	1295	272.2876933
65.28	1296	272.2971819
65.29	1327	272.5913275
65.3	1336	272.6767245
65.31	1320	272.5249075
65.32	1308	272.4110447
65.33	1325	272.5723503
65.34	1334	272.6577474
65.35	1306	272.3920676
65.36	1297	272.3066705
65.37	1304	272.3730904
65.38	1327	272.5913275
65.39	1305	272.382579
65.4	1303	272.3636019
65.41	1342	272.7336559
65.42	1316	272.4869532
65.43	1322	272.5438846
65.44	1329	272.6103046
65.45	1312	272.448999
65.46	1285	272.1928077
65.47	1298	272.316159
65.48	1294	272.2782048
65.49	1315	272.4774647
65.5	1327	272.5913275
65.51	1315	272.4774647
65.52	1307	272.4015561
65.53	1344	272.7526331
65.54	1331	272.6292817
65.55	1296	272.2971819
65.56	1313	272.4584875
65.57	1318	272.5059304
65.58	1310	272.4300218
65.59	1315	272.4774647
65.6	1324	272.5628618
65.61	1333	272.6482588
65.62	1364	272.9424044
65.63	1356	272.8664959
65.64	1361	272.9139387
65.65	1350	272.8095645
65.66	1313	272.4584875
65.67	1301	272.3446247
65.68	1338	272.6957017
65.69	1338	272.6957017
65.7	1321	272.5343961
65.71	1322	272.5438846
65.72	1347	272.7810988
65.73	1352	272.8285416
65.74	1324	272.5628618
65.75	1335	272.667236
65.76	1339	272.7051902
65.77	1322	272.5438846
65.78	1314	272.4679761
65.79	1296	272.2971819
65.8	1311	272.4395104
65.81	1320	272.5249075
65.82	1304	272.3730904
65.83	1303	272.3636019
65.84	1319	272.5154189
65.85	1300	272.3351362
65.86	1317	272.4964418
65.87	1339	272.7051902
65.88	1354	272.8475187
65.89	1344	272.7526331
65.9	1312	272.448999
65.91	1304	272.3730904
65.92	1304	272.3730904
65.93	1328	272.600816
65.94	1358	272.885473
65.95	1368	272.9803587
65.96	1354	272.8475187
65.97	1360	272.9044501
65.98	1355	272.8570073
65.99	1338	272.6957017
66	1347	272.7810988
66.01	1370	272.9993358
66.02	1371	273.0088244
66.03	1354	272.8475187
66.04	1365	272.951893
66.05	1361	272.9139387
66.06	1333	272.6482588
66.07	1331	272.6292817
66.08	1330	272.6197931
66.09	1351	272.819053
66.1	1344	272.7526331
66.11	1336	272.6767245
66.12	1349	272.8000759
66.13	1347	272.7810988
66.14	1369	272.9898472
66.15	1354	272.8475187
66.16	1304	272.3730904
66.17	1313	272.4584875
66.18	1370	272.9993358
66.19	1377	273.0657558
66.2	1351	272.819053
66.21	1343	272.7431445
66.22	1346	272.7716102
66.23	1382	273.1131986
66.24	1421	273.4832527
66.25	1419	273.4642755
66.26	1388	273.17013
66.27	1369	272.9898472
66.28	1388	273.17013
66.29	1386	273.1511529
66.3	1348	272.7905873
66.31	1341	272.7241674
66.32	1362	272.9234273
66.33	1361	272.9139387
66.34	1334	272.6577474
66.35	1343	272.7431445
66.36	1358	272.885473
66.37	1353	272.8380302
66.38	1352	272.8285416
66.39	1359	272.8949616
66.4	1345	272.7621216
66.41	1333	272.6482588
66.42	1331	272.6292817
66.43	1338	272.6957017
66.44	1322	272.5438846
66.45	1318	272.5059304
66.46	1347	272.7810988
66.47	1345	272.7621216
66.48	1336	272.6767245
66.49	1344	272.7526331
66.5	1343	272.7431445
66.51	1336	272.6767245
66.52	1347	272.7810988
66.53	1371	273.0088244
66.54	1374	273.0372901
66.55	1346	272.7716102
66.56	1312	272.448999
66.57	1313	272.4584875
66.58	1312	272.448999
66.59	1318	272.5059304
66.6	1336	272.6767245
66.61	1352	272.8285416
66.62	1332	272.6387703
66.63	1340	272.7146788
66.64	1346	272.7716102
66.65	1357	272.8759844
66.66	1376	273.0562672
66.67	1363	272.9329158
66.68	1359	272.8949616
66.69	1348	272.7905873
66.7	1330	272.6197931
66.71	1330	272.6197931
66.72	1342	272.7336559
66.73	1351	272.819053
66.74	1336	272.6767245
66.75	1348	272.7905873
66.76	1360	272.9044501
66.77	1352	272.8285416
66.78	1351	272.819053
66.79	1345	272.7621216
66.8	1348	272.7905873
66.81	1357	272.8759844
66.82	1372	273.0183129
66.83	1369	272.9898472
66.84	1354	272.8475187
66.85	1355	272.8570073
66.86	1333	272.6482588
66.87	1307	272.4015561
66.88	1326	272.5818389
66.89	1348	272.7905873
66.9	1325	272.5723503
66.91	1324	272.5628618
66.92	1352	272.8285416
66.93	1340	272.7146788
66.94	1328	272.600816
66.95	1307	272.4015561
66.96	1313	272.4584875
66.97	1340	272.7146788
66.98	1343	272.7431445
66.99	1325	272.5723503
67	1339	272.7051902
67.01	1369	272.9898472
67.02	1346	272.7716102
67.03	1321	272.5343961
67.04	1332	272.6387703
67.05	1335	272.667236
67.06	1349	272.8000759
67.07	1360	272.9044501
67.08	1305	272.382579
67.09	1288	272.2212734
67.1	1328	272.600816
67.11	1344	272.7526331
67.12	1363	272.9329158
67.13	1360	272.9044501
67.14	1350	272.8095645
67.15	1317	272.4964418
67.16	1305	272.382579
67.17	1326	272.5818389
67.18	1341	272.7241674
67.19	1362	272.9234273
67.2	1352	272.8285416
67.21	1338	272.6957017
67.22	1336	272.6767245
67.23	1318	272.5059304
67.24	1317	272.4964418
67.25	1331	272.6292817
67.26	1351	272.819053
67.27	1349	272.8000759
67.28	1326	272.5818389
67.29	1315	272.4774647
67.3	1325	272.5723503
67.31	1342	272.7336559
67.32	1355	272.8570073
67.33	1353	272.8380302
67.34	1312	272.448999
67.35	1275	272.097922
67.36	1293	272.2687162
67.37	1335	272.667236
67.38	1356	272.8664959
67.39	1343	272.7431445
67.4	1342	272.7336559
67.41	1361	272.9139387
67.42	1359	272.8949616
67.43	1342	272.7336559
67.44	1329	272.6103046
67.45	1319	272.5154189
67.46	1338	272.6957017
67.47	1355	272.8570073
67.48	1339	272.7051902
67.49	1333	272.6482588
67.5	1349	272.8000759
67.51	1350	272.8095645
67.52	1324	272.5628618
67.53	1333	272.6482588
67.54	1365	272.951893
67.55	1367	272.9708701
67.56	1364	272.9424044
67.57	1356	272.8664959
67.58	1332	272.6387703
67.59	1319	272.5154189
67.6	1318	272.5059304
67.61	1305	272.382579
67.62	1312	272.448999
67.63	1350	272.8095645
67.64	1361	272.9139387
67.65	1371	273.0088244
67.66	1383	273.1226872
67.67	1366	272.9613815
67.68	1338	272.6957017
67.69	1317	272.4964418
67.7	1324	272.5628618
67.71	1348	272.7905873
67.72	1337	272.6862131
67.73	1318	272.5059304
67.74	1322	272.5438846
67.75	1318	272.5059304
67.76	1319	272.5154189
67.77	1341	272.7241674
67.78	1374	273.0372901
67.79	1347	272.7810988
67.8	1303	272.3636019
67.81	1309	272.4205333
67.82	1313	272.4584875
67.83	1315	272.4774647
67.84	1324	272.5628618
67.85	1338	272.6957017
67.86	1350	272.8095645
67.87	1334	272.6577474
67.88	1316	272.4869532
67.89	1312	272.448999
67.9	1323	272.5533732
67.91	1347	272.7810988
67.92	1342	272.7336559
67.93	1337	272.6862131
67.94	1355	272.8570073
67.95	1346	272.7716102
67.96	1336	272.6767245
67.97	1381	273.10371
67.98	1375	273.0467786
67.99	1322	272.5438846
68	1313	272.4584875
68.01	1313	272.4584875
68.02	1313	272.4584875
68.03	1332	272.6387703
68.04	1348	272.7905873
68.05	1353	272.8380302
68.06	1341	272.7241674
68.07	1325	272.5723503
68.08	1320	272.5249075
68.09	1322	272.5438846
68.1	1336	272.6767245
68.11	1334	272.6577474
68.12	1315	272.4774647
68.13	1317	272.4964418
68.14	1328	272.600816
68.15	1343	272.7431445
68.16	1336	272.6767245
68.17	1318	272.5059304
68.18	1309	272.4205333
68.19	1301	272.3446247
68.2	1332	272.6387703
68.21	1358	272.885473
68.22	1350	272.8095645
68.23	1345	272.7621216
68.24	1348	272.7905873
68.25	1343	272.7431445
68.26	1330	272.6197931
68.27	1314	272.4679761
68.28	1320	272.5249075
68.29	1356	272.8664959
68.3	1386	273.1511529
68.31	1373	273.0278015
68.32	1356	272.8664959
68.33	1352	272.8285416
68.34	1361	272.9139387
68.35	1371	273.0088244
68.36	1360	272.9044501
68.37	1337	272.6862131
68.38	1321	272.5343961
68.39	1331	272.6292817
68.4	1335	272.667236
68.41	1328	272.600816
68.42	1338	272.6957017
68.43	1334	272.6577474
68.44	1336	272.6767245
68.45	1338	272.6957017
68.46	1347	272.7810988
68.47	1339	272.7051902
68.48	1344	272.7526331
68.49	1353	272.8380302
68.5	1340	272.7146788
68.51	1337	272.6862131
68.52	1340	272.7146788
68.53	1360	272.9044501
68.54	1356	272.8664959
68.55	1360	272.9044501
68.56	1350	272.8095645
68.57	1318	272.5059304
68.58	1344	272.7526331
68.59	1360	272.9044501
68.6	1359	272.8949616
68.61	1367	272.9708701
68.62	1366	272.9613815
68.63	1354	272.8475187
68.64	1328	272.600816
68.65	1348	272.7905873
68.66	1384	273.1321757
68.67	1399	273.2745042
68.68	1349	272.8000759
68.69	1330	272.6197931
68.7	1358	272.885473
68.71	1368	272.9803587
68.72	1370	272.9993358
68.73	1359	272.8949616
68.74	1366	272.9613815
68.75	1383	273.1226872
68.76	1372	273.0183129
68.77	1355	272.8570073
68.78	1348	272.7905873
68.79	1349	272.8000759
68.8	1334	272.6577474
68.81	1305	272.382579
68.82	1316	272.4869532
68.83	1313	272.4584875
68.84	1312	272.448999
68.85	1350	272.8095645
68.86	1344	272.7526331
68.87	1352	272.8285416
68.88	1356	272.8664959
68.89	1368	272.9803587
68.9	1366	272.9613815
68.91	1333	272.6482588
68.92	1299	272.3256476
68.93	1321	272.5343961
68.94	1337	272.6862131
68.95	1364	272.9424044
68.96	1397	273.2555271
68.97	1333	272.6482588
68.98	1301	272.3446247
68.99	1341	272.7241674
69	1361	272.9139387
69.01	1313	272.4584875
69.02	1302	272.3541133
69.03	1338	272.6957017
69.04	1372	273.0183129
69.05	1371	273.0088244
69.06	1353	272.8380302
69.07	1338	272.6957017
69.08	1351	272.819053
69.09	1372	273.0183129
69.1	1381	273.10371
69.11	1361	272.9139387
69.12	1341	272.7241674
69.13	1351	272.819053
69.14	1389	273.1796186
69.15	1354	272.8475187
69.16	1329	272.6103046
69.17	1369	272.9898472
69.18	1344	272.7526331
69.19	1348	272.7905873
69.2	1341	272.7241674
69.21	1327	272.5913275
69.22	1318	272.5059304
69.23	1328	272.600816
69.24	1373	273.0278015
69.25	1356	272.8664959
69.26	1346	272.7716102
69.27	1384	273.1321757
69.28	1385	273.1416643
69.29	1352	272.8285416
69.3	1354	272.8475187
69.31	1384	273.1321757
69.32	1390	273.1891071
69.33	1383	273.1226872
69.34	1393	273.2175728
69.35	1396	273.2460385
69.36	1374	273.0372901
69.37	1343	272.7431445
69.38	1342	272.7336559
69.39	1312	272.448999
69.4	1321	272.5343961
69.41	1313	272.4584875
69.42	1333	272.6482588
69.43	1402	273.3029699
69.44	1407	273.3504128
69.45	1396	273.2460385
69.46	1411	273.388367
69.47	1413	273.4073442
69.48	1379	273.0847329
69.49	1384	273.1321757
69.5	1406	273.3409242
69.51	1377	273.0657558
69.52	1396	273.2460385
69.53	1438	273.6445583
69.54	1497	274.2043837
69.55	1535	274.5649492
69.56	1597	275.1532403
69.57	1671	275.8553942
69.58	1705	276.1780055
69.59	1788	276.9655565
69.6	1819	277.2597021
69.61	1777	276.8611823
69.62	1687	276.0072113
69.63	1676	275.9028371
69.64	1625	275.4189202
69.65	1551	274.7167663
69.66	1542	274.6313692
69.67	1501	274.242338
69.68	1452	273.7773982
69.69	1448	273.739444
69.7	1414	273.4168327
69.71	1397	273.2555271
69.72	1426	273.5306955
69.73	1429	273.5591612
69.74	1426	273.5306955
69.75	1474	273.9861467
69.76	1520	274.4226207
69.77	1541	274.6218806
69.78	1569	274.8875605
69.79	1588	275.0678432
69.8	1563	274.8306291
69.81	1562	274.8211405
69.82	1542	274.6313692
69.83	1503	274.2613151
69.84	1466	273.9102382
69.85	1437	273.6350697
69.86	1433	273.5971155
69.87	1419	273.4642755
69.88	1401	273.2934814
69.89	1384	273.1321757
69.9	1382	273.1131986
69.91	1369	272.9898472
69.92	1369	272.9898472
69.93	1396	273.2460385
69.94	1383	273.1226872
69.95	1365	272.951893
69.96	1404	273.3219471
69.97	1395	273.23655
69.98	1377	273.0657558
69.99	1376	273.0562672
70	1338	272.6957017
70.01	1341	272.7241674
70.02	1338	272.6957017
70.03	1356	272.8664959
70.04	1340	272.7146788
70.05	1359	272.8949616
70.06	1375	273.0467786
70.07	1342	272.7336559
70.08	1377	273.0657558
70.09	1384	273.1321757
70.1	1338	272.6957017
70.11	1369	272.9898472
70.12	1356	272.8664959
70.13	1328	272.600816
70.14	1328	272.600816
70.15	1341	272.7241674
70.16	1344	272.7526331
70.17	1371	273.0088244
70.18	1394	273.2270614
70.19	1353	272.8380302
70.2	1354	272.8475187
70.21	1371	273.0088244
70.22	1374	273.0372901
70.23	1354	272.8475187
70.24	1344	272.7526331
70.25	1322	272.5438846
70.26	1311	272.4395104
70.27	1327	272.5913275
70.28	1394	273.2270614
70.29	1381	273.10371
70.3	1353	272.8380302
70.31	1351	272.819053
70.32	1369	272.9898472
70.33	1374	273.0372901
70.34	1374	273.0372901
70.35	1390	273.1891071
70.36	1362	272.9234273
70.37	1349	272.8000759
70.38	1356	272.8664959
70.39	1351	272.819053
70.4	1354	272.8475187
70.41	1365	272.951893
70.42	1329	272.6103046
70.43	1324	272.5628618
70.44	1376	273.0562672
70.45	1380	273.0942215
70.46	1383	273.1226872
70.47	1377	273.0657558
70.48	1384	273.1321757
70.49	1425	273.5212069
70.5	1371	273.0088244
70.51	1356	272.8664959
70.52	1354	272.8475187
70.53	1362	272.9234273
70.54	1355	272.8570073
70.55	1379	273.0847329
70.56	1373	273.0278015
70.57	1369	272.9898472
70.58	1375	273.0467786
70.59	1391	273.1985957
70.6	1362	272.9234273
70.61	1380	273.0942215
70.62	1362	272.9234273
70.63	1375	273.0467786
70.64	1382	273.1131986
70.65	1369	272.9898472
70.66	1305	272.382579
70.67	1301	272.3446247
70.68	1350	272.8095645
70.69	1332	272.6387703
70.7	1347	272.7810988
70.71	1364	272.9424044
70.72	1315	272.4774647
70.73	1348	272.7905873
70.74	1396	273.2460385
70.75	1354	272.8475187
70.76	1305	272.382579
70.77	1363	272.9329158
70.78	1383	273.1226872
70.79	1384	273.1321757
70.8	1385	273.1416643
70.81	1365	272.951893
70.82	1393	273.2175728
70.83	1388	273.17013
70.84	1360	272.9044501
70.85	1346	272.7716102
70.86	1379	273.0847329
70.87	1361	272.9139387
70.88	1329	272.6103046
70.89	1339	272.7051902
70.9	1348	272.7905873
70.91	1386	273.1511529
70.92	1345	272.7621216
70.93	1342	272.7336559
70.94	1299	272.3256476
70.95	1297	272.3066705
70.96	1353	272.8380302
70.97	1375	273.0467786
70.98	1351	272.819053
70.99	1367	272.9708701
71	1326	272.5818389
71.01	1318	272.5059304
71.02	1347	272.7810988
71.03	1357	272.8759844
71.04	1415	273.4263213
71.05	1410	273.3788785
71.06	1386	273.1511529
71.07	1343	272.7431445
71.08	1346	272.7716102
71.09	1372	273.0183129
71.1	1369	272.9898472
71.11	1348	272.7905873
71.12	1352	272.8285416
71.13	1404	273.3219471
71.14	1382	273.1131986
71.15	1409	273.3693899
71.16	1364	272.9424044
71.17	1314	272.4679761
71.18	1365	272.951893
71.19	1392	273.2080843
71.2	1370	272.9993358
71.21	1393	273.2175728
71.22	1370	272.9993358
71.23	1326	272.5818389
71.24	1316	272.4869532
71.25	1320	272.5249075
71.26	1358	272.885473
71.27	1364	272.9424044
71.28	1431	273.5781383
71.29	1362	272.9234273
71.3	1322	272.5438846
71.31	1397	273.2555271
71.32	1372	273.0183129
71.33	1403	273.3124585
71.34	1358	272.885473
71.35	1413	273.4073442
71.36	1376	273.0562672
71.37	1360	272.9044501
71.38	1394	273.2270614
71.39	1406	273.3409242
71.4	1410	273.3788785
71.41	1391	273.1985957
71.42	1396	273.2460385
71.43	1385	273.1416643
71.44	1464	273.891261
71.45	1455	273.8058639
71.46	1446	273.7204668
71.47	1423	273.5022298
71.48	1451	273.7679097
71.49	1483	274.0715438
71.5	1471	273.957681
71.51	1495	274.1854066
71.52	1416	273.4358098
71.53	1425	273.5212069
71.54	1402	273.3029699
71.55	1441	273.673024
71.56	1412	273.3978556
71.57	1456	273.8153525
71.58	1410	273.3788785
71.59	1394	273.2270614
71.6	1405	273.3314356
71.61	1412	273.3978556
71.62	1421	273.4832527
71.63	1399	273.2745042
71.64	1406	273.3409242
71.65	1432	273.5876269
71.66	1405	273.3314356
71.67	1403	273.3124585
71.68	1431	273.5781383
71.69	1428	273.5496726
71.7	1462	273.8722839
71.71	1454	273.7963754
71.72	1399	273.2745042
71.73	1430	273.5686498
71.74	1482	274.0620552
71.75	1449	273.7489325
71.76	1419	273.4642755
71.77	1417	273.4452984
71.78	1411	273.388367
71.79	1444	273.7014897
71.8	1473	273.9766581
71.81	1478	274.024101
71.82	1445	273.7109783
71.83	1460	273.8533068
71.84	1488	274.1189866
71.85	1502	274.2518265
71.86	1545	274.6598349
71.87	1571	274.9065376
71.88	1652	275.6751115
71.89	1746	276.5670367
71.9	1874	277.7815732
71.91	2044	279.3946295
71.92	2207	280.9412658
71.93	2459	283.3323845
71.94	2597	284.6418066
71.95	2551	284.2053326
71.96	2648	285.1257235
71.97	2643	285.0782807
71.98	2535	284.0535155
71.99	2465	283.3893159
72	2360	282.3930164
72.01	2218	281.04564
72.02	2077	279.7077522
72.03	1990	278.8822469
72.04	1914	278.1611159
72.05	1804	277.1173736
72.06	1759	276.6903881
72.07	1669	275.8364171
72.08	1636	275.5232944
72.09	1658	275.7320429
72.1	1689	276.0261884
72.11	1709	276.2159598
72.12	1783	276.9181137
72.13	1889	277.9239017
72.14	1974	278.7304298
72.15	2003	279.0055983
72.16	2047	279.4230952
72.17	2117	280.0872948
72.18	2030	279.2617895
72.19	1914	278.1611159
72.2	1892	277.9523674
72.21	1904	278.0662302
72.22	1834	277.4020306
72.23	1756	276.6619224
72.24	1816	277.2312364
72.25	1810	277.174305
72.26	1783	276.9181137
72.27	1747	276.5765253
72.28	1774	276.8327166
72.29	1753	276.6334567
72.3	1706	276.1874941
72.31	1647	275.6276687
72.32	1603	275.2101717
72.33	1597	275.1532403
72.34	1559	274.7926748
72.35	1527	274.4890407
72.36	1497	274.2043837
72.37	1504	274.2708037
72.38	1457	273.8248411
72.39	1414	273.4168327
72.4	1443	273.6920011
72.41	1447	273.7299554
72.42	1428	273.5496726
72.43	1404	273.3219471
72.44	1441	273.673024
72.45	1539	274.6029035
72.46	1519	274.4131322
72.47	1534	274.5554607
72.48	1541	274.6218806
72.49	1510	274.3277351
72.5	1517	274.394155
72.51	1528	274.4985293
72.52	1534	274.5554607
72.53	1528	274.4985293
72.54	1482	274.0620552
72.55	1460	273.8533068
72.56	1462	273.8722839
72.57	1469	273.9387039
72.58	1417	273.4452984
72.59	1413	273.4073442
72.6	1402	273.3029699
72.61	1382	273.1131986
72.62	1415	273.4263213
72.63	1411	273.388367
72.64	1410	273.3788785
72.65	1401	273.2934814
72.66	1378	273.0752443
72.67	1359	272.8949616
72.68	1390	273.1891071
72.69	1383	273.1226872
72.7	1410	273.3788785
72.71	1427	273.5401841
72.72	1363	272.9329158
72.73	1343	272.7431445
72.74	1361	272.9139387
72.75	1387	273.1606414
72.76	1429	273.5591612
72.77	1440	273.6635354
72.78	1371	273.0088244
72.79	1353	272.8380302
72.8	1333	272.6482588
72.81	1354	272.8475187
72.82	1367	272.9708701
72.83	1365	272.951893
72.84	1348	272.7905873
72.85	1373	273.0278015
72.86	1381	273.10371
72.87	1409	273.3693899
72.88	1392	273.2080843
72.89	1361	272.9139387
72.9	1373	273.0278015
72.91	1340	272.7146788
72.92	1384	273.1321757
72.93	1397	273.2555271
72.94	1368	272.9803587
72.95	1381	273.10371
72.96	1393	273.2175728
72.97	1352	272.8285416
72.98	1366	272.9613815
72.99	1360	272.9044501
73	1334	272.6577474
73.01	1357	272.8759844
73.02	1364	272.9424044
73.03	1366	272.9613815
73.04	1377	273.0657558
73.05	1360	272.9044501
73.06	1391	273.1985957
73.07	1413	273.4073442
73.08	1363	272.9329158
73.09	1353	272.8380302
73.1	1355	272.8570073
73.11	1358	272.885473
73.12	1372	273.0183129
73.13	1402	273.3029699
73.14	1389	273.1796186
73.15	1355	272.8570073
73.16	1351	272.819053
73.17	1357	272.8759844
73.18	1375	273.0467786
73.19	1384	273.1321757
73.2	1394	273.2270614
73.21	1385	273.1416643
73.22	1382	273.1131986
73.23	1384	273.1321757
73.24	1367	272.9708701
73.25	1351	272.819053
73.26	1355	272.8570073
73.27	1413	273.4073442
73.28	1387	273.1606414
73.29	1358	272.885473
73.3	1364	272.9424044
73.31	1352	272.8285416
73.32	1360	272.9044501
73.33	1391	273.1985957
73.34	1383	273.1226872
73.35	1377	273.0657558
73.36	1369	272.9898472
73.37	1355	272.8570073
73.38	1384	273.1321757
73.39	1379	273.0847329
73.4	1382	273.1131986
73.41	1380	273.0942215
73.42	1344	272.7526331
73.43	1364	272.9424044
73.44	1387	273.1606414
73.45	1395	273.23655
73.46	1410	273.3788785
73.47	1424	273.5117184
73.48	1405	273.3314356
73.49	1423	273.5022298
73.5	1434	273.606604
73.51	1419	273.4642755
73.52	1357	272.8759844
73.53	1358	272.885473
73.54	1402	273.3029699
73.55	1436	273.6255812
73.56	1436	273.6255812
73.57	1396	273.2460385
73.58	1378	273.0752443
73.59	1382	273.1131986
73.6	1361	272.9139387
73.61	1384	273.1321757
73.62	1398	273.2650157
73.63	1392	273.2080843
73.64	1379	273.0847329
73.65	1409	273.3693899
73.66	1401	273.2934814
73.67	1373	273.0278015
73.68	1344	272.7526331
73.69	1331	272.6292817
73.7	1349	272.8000759
73.71	1374	273.0372901
73.72	1362	272.9234273
73.73	1349	272.8000759
73.74	1361	272.9139387
73.75	1371	273.0088244
73.76	1368	272.9803587
73.77	1368	272.9803587
73.78	1368	272.9803587
73.79	1413	273.4073442
73.8	1429	273.5591612
73.81	1392	273.2080843
73.82	1390	273.1891071
73.83	1384	273.1321757
73.84	1381	273.10371
73.85	1329	272.6103046
73.86	1327	272.5913275
73.87	1348	272.7905873
73.88	1353	272.8380302
73.89	1405	273.3314356
73.9	1397	273.2555271
73.91	1367	272.9708701
73.92	1376	273.0562672
73.93	1381	273.10371
73.94	1374	273.0372901
73.95	1345	272.7621216
73.96	1316	272.4869532
73.97	1315	272.4774647
73.98	1349	272.8000759
73.99	1372	273.0183129
74	1375	273.0467786
74.01	1398	273.2650157
74.02	1423	273.5022298
74.03	1436	273.6255812
74.04	1426	273.5306955
74.05	1412	273.3978556
74.06	1384	273.1321757
74.07	1346	272.7716102
74.08	1343	272.7431445
74.09	1387	273.1606414
74.1	1412	273.3978556
74.11	1401	273.2934814
74.12	1386	273.1511529
74.13	1364	272.9424044
74.14	1380	273.0942215
74.15	1390	273.1891071
74.16	1381	273.10371
74.17	1371	273.0088244
74.18	1386	273.1511529
74.19	1402	273.3029699
74.2	1405	273.3314356
74.21	1391	273.1985957
74.22	1385	273.1416643
74.23	1384	273.1321757
74.24	1371	273.0088244
74.25	1375	273.0467786
74.26	1410	273.3788785
74.27	1406	273.3409242
74.28	1391	273.1985957
74.29	1404	273.3219471
74.3	1416	273.4358098
74.31	1401	273.2934814
74.32	1409	273.3693899
74.33	1410	273.3788785
74.34	1391	273.1985957
74.35	1404	273.3219471
74.36	1400	273.2839928
74.37	1417	273.4452984
74.38	1418	273.454787
74.39	1382	273.1131986
74.4	1386	273.1511529
74.41	1385	273.1416643
74.42	1378	273.0752443
74.43	1387	273.1606414
74.44	1386	273.1511529
74.45	1377	273.0657558
74.46	1389	273.1796186
74.47	1423	273.5022298
74.48	1433	273.5971155
74.49	1436	273.6255812
74.5	1467	273.9197267
74.51	1495	274.1854066
74.52	1500	274.2328494
74.53	1557	274.7736977
74.54	1622	275.3904545
74.55	1638	275.5422716
74.56	1627	275.4378973
74.57	1618	275.3525002
74.58	1632	275.4853402
74.59	1627	275.4378973
74.6	1601	275.1911946
74.61	1576	274.9539805
74.62	1546	274.6693235
74.63	1549	274.6977892
74.64	1556	274.7642091
74.65	1509	274.3182465
74.66	1468	273.9292153
74.67	1439	273.6540469
74.68	1426	273.5306955
74.69	1436	273.6255812
74.7	1437	273.6350697
74.71	1468	273.9292153
74.72	1461	273.8627953
74.73	1434	273.606604
74.74	1475	273.9956353
74.75	1504	274.2708037
74.76	1498	274.2138723
74.77	1496	274.1948952
74.78	1496	274.1948952
74.79	1498	274.2138723
74.8	1496	274.1948952
74.81	1472	273.9671696
74.82	1448	273.739444
74.83	1424	273.5117184
74.84	1407	273.3504128
74.85	1417	273.4452984
74.86	1432	273.5876269
74.87	1423	273.5022298
74.88	1432	273.5876269
74.89	1428	273.5496726
74.9	1400	273.2839928
74.91	1407	273.3504128
74.92	1402	273.3029699
74.93	1394	273.2270614
74.94	1406	273.3409242
74.95	1414	273.4168327
74.96	1397	273.2555271
74.97	1414	273.4168327
74.98	1424	273.5117184
74.99	1382	273.1131986
75	1388	273.17013
75.01	1396	273.2460385
75.02	1390	273.1891071
75.03	1393	273.2175728
75.04	1419	273.4642755
75.05	1429	273.5591612
75.06	1384	273.1321757
75.07	1392	273.2080843
75.08	1423	273.5022298
75.09	1419	273.4642755
75.1	1410	273.3788785
75.11	1390	273.1891071
75.12	1420	273.4737641
75.13	1463	273.8817725
75.14	1430	273.5686498
75.15	1418	273.454787
75.16	1427	273.5401841
75.17	1420	273.4737641
75.18	1436	273.6255812
75.19	1425	273.5212069
75.2	1426	273.5306955
75.21	1453	273.7868868
75.22	1459	273.8438182
75.23	1458	273.8343296
75.24	1458	273.8343296
75.25	1451	273.7679097
75.26	1446	273.7204668
75.27	1464	273.891261
75.28	1485	274.0905209
75.29	1482	274.0620552
75.3	1478	274.024101
75.31	1498	274.2138723
75.32	1521	274.4321093
75.33	1538	274.5934149
75.34	1557	274.7736977
75.35	1598	275.1627289
75.36	1700	276.1305627
75.37	1811	277.1837935
75.38	1896	277.9903217
75.39	1981	278.7968498
75.4	2061	279.5559351
75.41	2155	280.4478603
75.42	2240	281.2543885
75.43	2293	281.7572825
75.44	2310	281.9185881
75.45	2269	281.5295569
75.46	2200	280.8748458
75.47	2108	280.0018977
75.48	1981	278.7968498
75.49	1844	277.4969162
75.5	1732	276.4341968
75.51	1670	275.8459057
75.52	1626	275.4284088
75.53	1614	275.314546
75.54	1611	275.2860803
75.55	1614	275.314546
75.56	1655	275.7035772
75.57	1679	275.9313028
75.58	1704	276.1685169
75.59	1719	276.3108454
75.6	1728	276.3962425
75.61	1756	276.6619224
75.62	1815	277.2217478
75.63	1847	277.5253819
75.64	1902	278.0472531
75.65	1917	278.1895816
75.66	1914	278.1611159
75.67	1892	277.9523674
75.68	1816	277.2312364
75.69	1738	276.4911282
75.7	1672	275.8648828
75.71	1642	275.5802258
75.72	1632	275.4853402
75.73	1545	274.6598349
75.74	1505	274.2802922
75.75	1511	274.3372236
75.76	1486	274.1000095
75.77	1482	274.0620552
75.78	1474	273.9861467
75.79	1500	274.2328494
75.8	1465	273.9007496
75.81	1408	273.3599013
75.82	1453	273.7868868
75.83	1465	273.9007496
75.84	1425	273.5212069
75.85	1409	273.3693899
75.86	1434	273.606604
75.87	1430	273.5686498
75.88	1405	273.3314356
75.89	1435	273.6160926
75.9	1454	273.7963754
75.91	1432	273.5876269
75.92	1419	273.4642755
75.93	1405	273.3314356
75.94	1390	273.1891071
75.95	1396	273.2460385
75.96	1408	273.3599013
75.97	1404	273.3219471
75.98	1402	273.3029699
75.99	1395	273.23655
76	1402	273.3029699
76.01	1411	273.388367
76.02	1390	273.1891071
76.03	1383	273.1226872
76.04	1375	273.0467786
76.05	1385	273.1416643
76.06	1372	273.0183129
76.07	1368	272.9803587
76.08	1363	272.9329158
76.09	1389	273.1796186
76.1	1444	273.7014897
76.11	1460	273.8533068
76.12	1405	273.3314356
76.13	1375	273.0467786
76.14	1372	273.0183129
76.15	1376	273.0562672
76.16	1381	273.10371
76.17	1388	273.17013
76.18	1385	273.1416643
76.19	1379	273.0847329
76.2	1350	272.8095645
76.21	1361	272.9139387
76.22	1399	273.2745042
76.23	1403	273.3124585
76.24	1390	273.1891071
76.25	1387	273.1606414
76.26	1419	273.4642755
76.27	1416	273.4358098
76.28	1385	273.1416643
76.29	1408	273.3599013
76.3	1418	273.454787
76.31	1402	273.3029699
76.32	1370	272.9993358
76.33	1364	272.9424044
76.34	1373	273.0278015
76.35	1354	272.8475187
76.36	1363	272.9329158
76.37	1388	273.17013
76.38	1364	272.9424044
76.39	1349	272.8000759
76.4	1363	272.9329158
76.41	1409	273.3693899
76.42	1399	273.2745042
76.43	1398	273.2650157
76.44	1439	273.6540469
76.45	1431	273.5781383
76.46	1379	273.0847329
76.47	1348	272.7905873
76.48	1384	273.1321757
76.49	1409	273.3693899
76.5	1386	273.1511529
76.51	1374	273.0372901
76.52	1372	273.0183129
76.53	1401	273.2934814
76.54	1408	273.3599013
76.55	1380	273.0942215
76.56	1379	273.0847329
76.57	1399	273.2745042
76.58	1393	273.2175728
76.59	1405	273.3314356
76.6	1413	273.4073442
76.61	1346	272.7716102
76.62	1298	272.316159
76.63	1310	272.4300218
76.64	1368	272.9803587
76.65	1402	273.3029699
76.66	1398	273.2650157
76.67	1393	273.2175728
76.68	1388	273.17013
76.69	1365	272.951893
76.7	1358	272.885473
76.71	1383	273.1226872
76.72	1411	273.388367
76.73	1411	273.388367
76.74	1419	273.4642755
76.75	1400	273.2839928
76.76	1374	273.0372901
76.77	1389	273.1796186
76.78	1413	273.4073442
76.79	1362	272.9234273
76.8	1330	272.6197931
76.81	1370	272.9993358
76.82	1401	273.2934814
76.83	1388	273.17013
76.84	1362	272.9234273
76.85	1378	273.0752443
76.86	1380	273.0942215
76.87	1357	272.8759844
76.88	1396	273.2460385
76.89	1426	273.5306955
76.9	1406	273.3409242
76.91	1379	273.0847329
76.92	1372	273.0183129
76.93	1351	272.819053
76.94	1370	272.9993358
76.95	1389	273.1796186
76.96	1370	272.9993358
76.97	1348	272.7905873
76.98	1345	272.7621216
76.99	1372	273.0183129
77	1404	273.3219471
77.01	1415	273.4263213
77.02	1371	273.0088244
77.03	1356	272.8664959
77.04	1419	273.4642755
77.05	1349	272.8000759
77.06	1367	272.9708701
77.07	1396	273.2460385
77.08	1385	273.1416643
77.09	1383	273.1226872
77.1	1373	273.0278015
77.11	1371	273.0088244
77.12	1389	273.1796186
77.13	1380	273.0942215
77.14	1380	273.0942215
77.15	1365	272.951893
77.16	1365	272.951893
77.17	1385	273.1416643
77.18	1395	273.23655
77.19	1444	273.7014897
77.2	1448	273.739444
77.21	1414	273.4168327
77.22	1388	273.17013
77.23	1370	272.9993358
77.24	1327	272.5913275
77.25	1376	273.0562672
77.26	1380	273.0942215
77.27	1395	273.23655
77.28	1419	273.4642755
77.29	1411	273.388367
77.3	1419	273.4642755
77.31	1395	273.23655
77.32	1335	272.667236
77.33	1350	272.8095645
77.34	1364	272.9424044
77.35	1359	272.8949616
77.36	1374	273.0372901
77.37	1406	273.3409242
77.38	1404	273.3219471
77.39	1410	273.3788785
77.4	1396	273.2460385
77.41	1427	273.5401841
77.42	1426	273.5306955
77.43	1399	273.2745042
77.44	1369	272.9898472
77.45	1369	272.9898472
77.46	1406	273.3409242
77.47	1397	273.2555271
77.48	1389	273.1796186
77.49	1399	273.2745042
77.5	1401	273.2934814
77.51	1429	273.5591612
77.52	1412	273.3978556
77.53	1409	273.3693899
77.54	1383	273.1226872
77.55	1400	273.2839928
77.56	1421	273.4832527
77.57	1424	273.5117184
77.58	1437	273.6350697
77.59	1441	273.673024
77.6	1451	273.7679097
77.61	1445	273.7109783
77.62	1401	273.2934814
77.63	1420	273.4737641
77.64	1455	273.8058639
77.65	1468	273.9292153
77.66	1514	274.3656893
77.67	1547	274.678812
77.68	1593	275.1152861
77.69	1602	275.2006832
77.7	1597	275.1532403
77.71	1657	275.7225543
77.72	1693	276.0641427
77.73	1691	276.0451656
77.74	1721	276.3298226
77.75	1700	276.1305627
77.76	1689	276.0261884
77.77	1644	275.599203
77.78	1605	275.2291489
77.79	1563	274.8306291
77.8	1543	274.6408578
77.81	1486	274.1000095
77.82	1412	273.3978556
77.83	1404	273.3219471
77.84	1428	273.5496726
77.85	1475	273.9956353
77.86	1496	274.1948952
77.87	1494	274.175918
77.88	1438	273.6445583
77.89	1403	273.3124585
77.9	1395	273.23655
77.91	1485	274.0905209
77.92	1518	274.4036436
77.93	1534	274.5554607
77.94	1514	274.3656893
77.95	1523	274.4510864
77.96	1577	274.963469
77.97	1570	274.8970491
77.98	1558	274.7831863
77.99	1534	274.5554607
78	1527	274.4890407
78.01	1502	274.2518265
78.02	1473	273.9766581
78.03	1452	273.7773982
78.04	1448	273.739444
78.05	1417	273.4452984
78.06	1409	273.3693899
78.07	1419	273.4642755
78.08	1427	273.5401841
78.09	1412	273.3978556
78.1	1395	273.23655
78.11	1412	273.3978556
78.12	1418	273.454787
78.13	1401	273.2934814
78.14	1401	273.2934814
78.15	1406	273.3409242
78.16	1435	273.6160926
78.17	1420	273.4737641
78.18	1414	273.4168327
78.19	1418	273.454787
78.2	1415	273.4263213
78.21	1401	273.2934814
78.22	1404	273.3219471
78.23	1425	273.5212069
78.24	1436	273.6255812
78.25	1438	273.6445583
78.26	1411	273.388367
78.27	1414	273.4168327
78.28	1392	273.2080843
78.29	1372	273.0183129
78.3	1382	273.1131986
78.31	1380	273.0942215
78.32	1385	273.1416643
78.33	1368	272.9803587
78.34	1376	273.0562672
78.35	1403	273.3124585
78.36	1383	273.1226872
78.37	1382	273.1131986
78.38	1412	273.3978556
78.39	1369	272.9898472
78.4	1389	273.1796186
78.41	1424	273.5117184
78.42	1410	273.3788785
78.43	1417	273.4452984
78.44	1408	273.3599013
78.45	1393	273.2175728
78.46	1400	273.2839928
78.47	1420	273.4737641
78.48	1355	272.8570073
78.49	1368	272.9803587
78.5	1382	273.1131986
78.51	1402	273.3029699
78.52	1374	273.0372901
78.53	1414	273.4168327
78.54	1378	273.0752443
78.55	1353	272.8380302
78.56	1325	272.5723503
78.57	1340	272.7146788
78.58	1370	272.9993358
78.59	1420	273.4737641
78.6	1405	273.3314356
78.61	1399	273.2745042
78.62	1428	273.5496726
78.63	1442	273.6825126
78.64	1400	273.2839928
78.65	1418	273.454787
78.66	1437	273.6350697
78.67	1424	273.5117184
78.68	1411	273.388367
78.69	1444	273.7014897
78.7	1477	274.0146124
78.71	1510	274.3277351
78.72	1490	274.1379638
78.73	1471	273.957681
78.74	1515	274.3751779
78.75	1542	274.6313692
78.76	1534	274.5554607
78.77	1539	274.6029035
78.78	1534	274.5554607
78.79	1539	274.6029035
78.8	1495	274.1854066
78.81	1479	274.0335895
78.82	1449	273.7489325
78.83	1430	273.5686498
78.84	1406	273.3409242
78.85	1365	272.951893
78.86	1377	273.0657558
78.87	1420	273.4737641
78.88	1445	273.7109783
78.89	1458	273.8343296
78.9	1462	273.8722839
78.91	1449	273.7489325
78.92	1408	273.3599013
78.93	1382	273.1131986
78.94	1439	273.6540469
78.95	1441	273.673024
78.96	1440	273.6635354
78.97	1457	273.8248411
78.98	1434	273.606604
78.99	1449	273.7489325
79	1488	274.1189866
79.01	1500	274.2328494
79.02	1485	274.0905209
79.03	1441	273.673024
79.04	1436	273.6255812
79.05	1432	273.5876269
79.06	1408	273.3599013
79.07	1422	273.4927412
79.08	1422	273.4927412
79.09	1452	273.7773982
79.1	1427	273.5401841
79.11	1416	273.4358098
79.12	1379	273.0847329
79.13	1354	272.8475187
79.14	1371	273.0088244
79.15	1372	273.0183129
79.16	1362	272.9234273
79.17	1396	273.2460385
79.18	1438	273.6445583
79.19	1372	273.0183129
79.2	1400	273.2839928
79.21	1418	273.454787
79.22	1393	273.2175728
79.23	1396	273.2460385
79.24	1392	273.2080843
79.25	1352	272.8285416
79.26	1410	273.3788785
79.27	1462	273.8722839
79.28	1476	274.0051238
79.29	1433	273.5971155
79.3	1420	273.4737641
79.31	1420	273.4737641
79.32	1375	273.0467786
79.33	1377	273.0657558
79.34	1379	273.0847329
79.35	1388	273.17013
79.36	1420	273.4737641
79.37	1427	273.5401841
79.38	1406	273.3409242
79.39	1401	273.2934814
79.4	1468	273.9292153
79.41	1418	273.454787
79.42	1399	273.2745042
79.43	1441	273.673024
79.44	1413	273.4073442
79.45	1423	273.5022298
79.46	1392	273.2080843
79.47	1425	273.5212069
79.48	1400	273.2839928
79.49	1388	273.17013
79.5	1415	273.4263213
79.51	1424	273.5117184
79.52	1437	273.6350697
79.53	1480	274.0430781
79.54	1439	273.6540469
79.55	1414	273.4168327
79.56	1455	273.8058639
79.57	1492	274.1569409
79.58	1482	274.0620552
79.59	1483	274.0715438
79.6	1460	273.8533068
79.61	1479	274.0335895
79.62	1457	273.8248411
79.63	1408	273.3599013
79.64	1424	273.5117184
79.65	1490	274.1379638
79.66	1484	274.0810324
79.67	1407	273.3504128
79.68	1389	273.1796186
79.69	1429	273.5591612
79.7	1463	273.8817725
79.71	1424	273.5117184
79.72	1446	273.7204668
79.73	1429	273.5591612
79.74	1381	273.10371
79.75	1442	273.6825126
79.76	1466	273.9102382
79.77	1411	273.388367
79.78	1435	273.6160926
79.79	1431	273.5781383
79.8	1436	273.6255812
79.81	1426	273.5306955
79.82	1436	273.6255812
79.83	1441	273.673024
79.84	1457	273.8248411
79.85	1442	273.6825126
79.86	1408	273.3599013
79.87	1425	273.5212069
79.88	1432	273.5876269
79.89	1453	273.7868868
79.9	1408	273.3599013
79.91	1397	273.2555271
79.92	1374	273.0372901
79.93	1411	273.388367
79.94	1418	273.454787
79.95	1427	273.5401841
79.96	1358	272.885473
79.97	1358	272.885473
79.98	1358	272.885473
79.99	1358	272.885473
80	1358	272.885473
