TITLE	
DATA TYPE	
ORIGIN	JASCO
OWNER	
DATE	24/07/05
TIME	20:12:00
SPECTROMETER/DATA SYSTEM	JASCO Corp, V-630, Rev. 1.00
RESOLUTION	
DELTAX	-1.000000
XUNITS	NANOMETERS
YUNITS	ABSORBANCE
FIRSTX	800.0000
LASTX	400.0000
NPOINTS	401
FIRSTY	0.002733
MAXY	0.221750
MINY	0.002733
XYDATA
800.000000	0.002733
799.000000	0.002741
798.000000	0.002743
797.000000	0.002751
796.000000	0.002767
795.000000	0.002784
794.000000	0.002799
793.000000	0.002817
792.000000	0.002819
791.000000	0.002832
790.000000	0.002831
789.000000	0.002833
788.000000	0.002846
787.000000	0.002847
786.000000	0.002869
785.000000	0.002877
784.000000	0.002887
783.000000	0.002892
782.000000	0.002885
781.000000	0.002886
780.000000	0.002878
779.000000	0.002876
778.000000	0.002879
777.000000	0.002867
776.000000	0.002866
775.000000	0.002863
774.000000	0.002858
773.000000	0.002870
772.000000	0.002879
771.000000	0.002879
770.000000	0.002876
769.000000	0.002870
768.000000	0.002867
767.000000	0.002865
766.000000	0.002857
765.000000	0.002851
764.000000	0.002832
763.000000	0.002823
762.000000	0.002821
761.000000	0.002822
760.000000	0.002823
759.000000	0.002822
758.000000	0.002830
757.000000	0.002832
756.000000	0.002844
755.000000	0.002855
754.000000	0.002856
753.000000	0.002874
752.000000	0.002880
751.000000	0.002893
750.000000	0.002918
749.000000	0.002931
748.000000	0.002957
747.000000	0.002986
746.000000	0.003005
745.000000	0.003028
744.000000	0.003039
743.000000	0.003058
742.000000	0.002979
741.000000	0.003077
740.000000	0.003308
739.000000	0.003615
738.000000	0.003931
737.000000	0.003824
736.000000	0.003713
735.000000	0.003639
734.000000	0.003646
733.000000	0.003736
732.000000	0.003816
731.000000	0.003882
730.000000	0.003946
729.000000	0.003987
728.000000	0.004011
727.000000	0.004033
726.000000	0.004076
725.000000	0.004122
724.000000	0.004189
723.000000	0.004254
722.000000	0.004321
721.000000	0.004379
720.000000	0.004437
719.000000	0.004505
718.000000	0.004565
717.000000	0.004626
716.000000	0.004700
715.000000	0.004773
714.000000	0.004849
713.000000	0.004940
712.000000	0.005013
711.000000	0.005087
710.000000	0.005174
709.000000	0.005258
708.000000	0.005350
707.000000	0.005451
706.000000	0.005543
705.000000	0.005637
704.000000	0.005736
703.000000	0.005846
702.000000	0.005954
701.000000	0.006085
700.000000	0.006207
699.000000	0.006329
698.000000	0.006465
697.000000	0.006585
696.000000	0.006723
695.000000	0.006855
694.000000	0.006988
693.000000	0.007132
692.000000	0.007278
691.000000	0.007433
690.000000	0.007592
689.000000	0.007739
688.000000	0.007892
687.000000	0.008040
686.000000	0.008188
685.000000	0.008349
684.000000	0.008502
683.000000	0.008662
682.000000	0.008821
681.000000	0.008971
680.000000	0.009133
679.000000	0.009310
678.000000	0.009478
677.000000	0.009654
676.000000	0.009820
675.000000	0.009974
674.000000	0.010125
673.000000	0.010289
672.000000	0.010452
671.000000	0.010616
670.000000	0.010806
669.000000	0.010980
668.000000	0.011165
667.000000	0.011345
666.000000	0.011508
665.000000	0.011681
664.000000	0.011848
663.000000	0.012022
662.000000	0.012203
661.000000	0.012382
660.000000	0.012567
659.000000	0.012755
658.000000	0.012938
657.000000	0.013132
656.000000	0.013318
655.000000	0.013505
654.000000	0.013693
653.000000	0.013877
652.000000	0.014053
651.000000	0.014226
650.000000	0.014407
649.000000	0.014588
648.000000	0.014780
647.000000	0.014962
646.000000	0.015136
645.000000	0.015299
644.000000	0.015461
643.000000	0.015621
642.000000	0.015788
641.000000	0.015947
640.000000	0.016101
639.000000	0.016267
638.000000	0.016415
637.000000	0.016568
636.000000	0.016725
635.000000	0.016860
634.000000	0.016998
633.000000	0.017136
632.000000	0.017249
631.000000	0.017364
630.000000	0.017488
629.000000	0.017607
628.000000	0.017735
627.000000	0.017856
626.000000	0.017977
625.000000	0.018091
624.000000	0.018210
623.000000	0.018331
622.000000	0.018446
621.000000	0.018566
620.000000	0.018687
619.000000	0.018817
618.000000	0.018954
617.000000	0.019093
616.000000	0.019243
615.000000	0.019401
614.000000	0.019567
613.000000	0.019741
612.000000	0.019926
611.000000	0.020128
610.000000	0.020344
609.000000	0.020583
608.000000	0.020831
607.000000	0.021098
606.000000	0.021361
605.000000	0.021637
604.000000	0.021920
603.000000	0.022199
602.000000	0.022502
601.000000	0.022795
600.000000	0.023105
599.000000	0.023433
598.000000	0.023774
597.000000	0.024164
596.000000	0.024577
595.000000	0.025047
594.000000	0.025576
593.000000	0.026202
592.000000	0.026943
591.000000	0.027810
590.000000	0.028848
589.000000	0.030091
588.000000	0.031592
587.000000	0.033388
586.000000	0.035545
585.000000	0.038093
584.000000	0.041080
583.000000	0.044578
582.000000	0.048615
581.000000	0.053222
580.000000	0.058403
579.000000	0.064112
578.000000	0.070281
577.000000	0.076786
576.000000	0.083451
575.000000	0.090101
574.000000	0.096499
573.000000	0.102430
572.000000	0.107731
571.000000	0.112232
570.000000	0.115874
569.000000	0.118623
568.000000	0.120511
567.000000	0.121647
566.000000	0.122179
565.000000	0.122311
564.000000	0.122284
563.000000	0.122260
562.000000	0.122472
561.000000	0.123105
560.000000	0.124355
559.000000	0.126475
558.000000	0.129618
557.000000	0.133935
556.000000	0.139481
555.000000	0.146222
554.000000	0.154017
553.000000	0.162641
552.000000	0.171736
551.000000	0.180893
550.000000	0.189655
549.000000	0.197544
548.000000	0.204166
547.000000	0.209162
546.000000	0.212360
545.000000	0.213693
544.000000	0.213280
543.000000	0.211349
542.000000	0.208210
541.000000	0.204281
540.000000	0.199952
539.000000	0.195671
538.000000	0.191808
537.000000	0.188722
536.000000	0.186699
535.000000	0.185968
534.000000	0.186697
533.000000	0.188895
532.000000	0.192501
531.000000	0.197230
530.000000	0.202676
529.000000	0.208319
528.000000	0.213541
527.000000	0.217798
526.000000	0.220622
525.000000	0.221750
524.000000	0.221076
523.000000	0.218637
522.000000	0.214644
521.000000	0.209362
520.000000	0.203144
519.000000	0.196403
518.000000	0.189546
517.000000	0.182952
516.000000	0.177031
515.000000	0.172094
514.000000	0.168344
513.000000	0.165872
512.000000	0.164615
511.000000	0.164400
510.000000	0.164971
509.000000	0.165968
508.000000	0.166953
507.000000	0.167498
506.000000	0.167213
505.000000	0.165835
504.000000	0.163225
503.000000	0.159567
502.000000	0.155382
501.000000	0.148528
500.000000	0.141215
499.000000	0.133971
498.000000	0.128260
497.000000	0.122732
496.000000	0.118496
495.000000	0.114708
494.000000	0.111457
493.000000	0.108892
492.000000	0.106979
491.000000	0.105568
490.000000	0.104358
489.000000	0.103137
488.000000	0.101637
487.000000	0.099713
486.000000	0.097222
485.000000	0.094171
484.000000	0.090660
483.000000	0.086774
482.000000	0.082698
481.000000	0.078565
480.000000	0.074549
479.000000	0.070815
478.000000	0.067443
477.000000	0.064530
476.000000	0.062061
475.000000	0.060013
474.000000	0.058345
473.000000	0.056899
472.000000	0.055573
471.000000	0.054204
470.000000	0.052689
469.000000	0.050971
468.000000	0.049007
467.000000	0.046866
466.000000	0.044602
465.000000	0.042272
464.000000	0.040009
463.000000	0.037844
462.000000	0.035845
461.000000	0.034094
460.000000	0.032570
459.000000	0.031252
458.000000	0.030166
457.000000	0.029188
456.000000	0.028272
455.000000	0.027398
454.000000	0.026455
453.000000	0.025491
452.000000	0.024452
451.000000	0.023387
450.000000	0.022320
449.000000	0.021246
448.000000	0.020253
447.000000	0.019350
446.000000	0.018535
445.000000	0.017842
444.000000	0.017255
443.000000	0.016720
442.000000	0.016239
441.000000	0.015805
440.000000	0.015376
439.000000	0.014964
438.000000	0.014547
437.000000	0.014153
436.000000	0.013732
435.000000	0.013322
434.000000	0.012931
433.000000	0.012538
432.000000	0.012228
431.000000	0.011969
430.000000	0.011765
429.000000	0.011593
428.000000	0.011460
427.000000	0.011334
426.000000	0.011207
425.000000	0.011108
424.000000	0.011005
423.000000	0.010936
422.000000	0.010901
421.000000	0.010871
420.000000	0.010877
419.000000	0.010878
418.000000	0.010896
417.000000	0.010975
416.000000	0.011103
415.000000	0.011295
414.000000	0.011532
413.000000	0.011820
412.000000	0.012123
411.000000	0.012426
410.000000	0.012836
409.000000	0.013257
408.000000	0.013773
407.000000	0.014411
406.000000	0.015030
405.000000	0.015686
404.000000	0.016377
403.000000	0.017032
402.000000	0.017716
401.000000	0.020161
400.000000	0.022342
