TITLE	
DATA TYPE	
ORIGIN	JASCO
OWNER	
DATE	24/07/05
TIME	21:47:00
SPECTROMETER/DATA SYSTEM	JASCO Corp, V-630, Rev. 1.00
RESOLUTION	
DELTAX	-1.000000
XUNITS	NANOMETERS
YUNITS	ABSORBANCE
FIRSTX	800.0000
LASTX	400.0000
NPOINTS	401
FIRSTY	0.000469
MAXY	0.574211
MINY	0.000408
XYDATA
800.000000	0.000469
799.000000	0.000449
798.000000	0.000443
797.000000	0.000438
796.000000	0.000442
795.000000	0.000438
794.000000	0.000433
793.000000	0.000424
792.000000	0.000412
791.000000	0.000418
790.000000	0.000408
789.000000	0.000417
788.000000	0.000424
787.000000	0.000420
786.000000	0.000440
785.000000	0.000446
784.000000	0.000462
783.000000	0.000479
782.000000	0.000489
781.000000	0.000498
780.000000	0.000507
779.000000	0.000522
778.000000	0.000540
777.000000	0.000561
776.000000	0.000582
775.000000	0.000609
774.000000	0.000636
773.000000	0.000669
772.000000	0.000709
771.000000	0.000746
770.000000	0.000780
769.000000	0.000821
768.000000	0.000865
767.000000	0.000914
766.000000	0.000963
765.000000	0.001018
764.000000	0.001063
763.000000	0.001109
762.000000	0.001164
761.000000	0.001215
760.000000	0.001271
759.000000	0.001327
758.000000	0.001390
757.000000	0.001444
756.000000	0.001501
755.000000	0.001558
754.000000	0.001607
753.000000	0.001663
752.000000	0.001709
751.000000	0.001755
750.000000	0.001787
749.000000	0.001816
748.000000	0.001857
747.000000	0.001880
746.000000	0.001899
745.000000	0.001896
744.000000	0.001611
743.000000	0.001573
742.000000	0.001120
741.000000	0.001232
740.000000	0.001413
739.000000	0.001335
738.000000	0.001709
737.000000	0.001294
736.000000	0.001525
735.000000	0.001589
734.000000	0.001805
733.000000	0.001880
732.000000	0.001924
731.000000	0.001896
730.000000	0.001795
729.000000	0.001675
728.000000	0.001584
727.000000	0.001578
726.000000	0.001629
725.000000	0.001741
724.000000	0.001855
723.000000	0.001949
722.000000	0.002034
721.000000	0.002071
720.000000	0.002092
719.000000	0.002124
718.000000	0.002149
717.000000	0.002171
716.000000	0.002206
715.000000	0.002227
714.000000	0.002244
713.000000	0.002275
712.000000	0.002299
711.000000	0.002325
710.000000	0.002349
709.000000	0.002362
708.000000	0.002375
707.000000	0.002383
706.000000	0.002396
705.000000	0.002403
704.000000	0.002412
703.000000	0.002433
702.000000	0.002440
701.000000	0.002462
700.000000	0.002468
699.000000	0.002477
698.000000	0.002493
697.000000	0.002491
696.000000	0.002500
695.000000	0.002493
694.000000	0.002485
693.000000	0.002486
692.000000	0.002480
691.000000	0.002489
690.000000	0.002501
689.000000	0.002502
688.000000	0.002511
687.000000	0.002513
686.000000	0.002510
685.000000	0.002523
684.000000	0.002533
683.000000	0.002531
682.000000	0.002534
681.000000	0.002527
680.000000	0.002520
679.000000	0.002532
678.000000	0.002540
677.000000	0.002547
676.000000	0.002550
675.000000	0.002544
674.000000	0.002528
673.000000	0.002520
672.000000	0.002507
671.000000	0.002497
670.000000	0.002492
669.000000	0.002480
668.000000	0.002472
667.000000	0.002464
666.000000	0.002443
665.000000	0.002428
664.000000	0.002410
663.000000	0.002385
662.000000	0.002379
661.000000	0.002362
660.000000	0.002353
659.000000	0.002352
658.000000	0.002343
657.000000	0.002346
656.000000	0.002345
655.000000	0.002352
654.000000	0.002365
653.000000	0.002381
652.000000	0.002399
651.000000	0.002405
650.000000	0.002420
649.000000	0.002439
648.000000	0.002453
647.000000	0.002479
646.000000	0.002494
645.000000	0.002502
644.000000	0.002512
643.000000	0.002511
642.000000	0.002522
641.000000	0.002526
640.000000	0.002537
639.000000	0.002557
638.000000	0.002563
637.000000	0.002570
636.000000	0.002570
635.000000	0.002565
634.000000	0.002563
633.000000	0.002561
632.000000	0.002557
631.000000	0.002549
630.000000	0.002558
629.000000	0.002566
628.000000	0.002578
627.000000	0.002593
626.000000	0.002606
625.000000	0.002628
624.000000	0.002653
623.000000	0.002681
622.000000	0.002705
621.000000	0.002730
620.000000	0.002755
619.000000	0.002783
618.000000	0.002802
617.000000	0.002812
616.000000	0.002821
615.000000	0.002840
614.000000	0.002861
613.000000	0.002873
612.000000	0.002904
611.000000	0.002911
610.000000	0.002927
609.000000	0.002946
608.000000	0.002951
607.000000	0.002961
606.000000	0.002957
605.000000	0.002960
604.000000	0.002960
603.000000	0.002962
602.000000	0.002972
601.000000	0.002985
600.000000	0.003002
599.000000	0.003019
598.000000	0.003046
597.000000	0.003084
596.000000	0.003106
595.000000	0.003143
594.000000	0.003157
593.000000	0.003176
592.000000	0.003204
591.000000	0.003217
590.000000	0.003245
589.000000	0.003264
588.000000	0.003287
587.000000	0.003309
586.000000	0.003333
585.000000	0.003343
584.000000	0.003351
583.000000	0.003376
582.000000	0.003394
581.000000	0.003420
580.000000	0.003441
579.000000	0.003456
578.000000	0.003464
577.000000	0.003486
576.000000	0.003506
575.000000	0.003528
574.000000	0.003561
573.000000	0.003581
572.000000	0.003613
571.000000	0.003628
570.000000	0.003654
569.000000	0.003678
568.000000	0.003696
567.000000	0.003730
566.000000	0.003754
565.000000	0.003781
564.000000	0.003825
563.000000	0.003874
562.000000	0.003922
561.000000	0.003970
560.000000	0.004001
559.000000	0.004044
558.000000	0.004089
557.000000	0.004146
556.000000	0.004211
555.000000	0.004265
554.000000	0.004330
553.000000	0.004393
552.000000	0.004453
551.000000	0.004522
550.000000	0.004584
549.000000	0.004653
548.000000	0.004733
547.000000	0.004804
546.000000	0.004889
545.000000	0.004965
544.000000	0.005061
543.000000	0.005163
542.000000	0.005261
541.000000	0.005361
540.000000	0.005449
539.000000	0.005547
538.000000	0.005659
537.000000	0.005787
536.000000	0.005909
535.000000	0.006027
534.000000	0.006146
533.000000	0.006267
532.000000	0.006423
531.000000	0.006591
530.000000	0.006754
529.000000	0.006932
528.000000	0.007101
527.000000	0.007288
526.000000	0.007482
525.000000	0.007685
524.000000	0.007894
523.000000	0.008092
522.000000	0.008306
521.000000	0.008522
520.000000	0.008751
519.000000	0.009007
518.000000	0.009269
517.000000	0.009539
516.000000	0.009808
515.000000	0.010092
514.000000	0.010395
513.000000	0.010705
512.000000	0.011038
511.000000	0.011355
510.000000	0.011697
509.000000	0.012052
508.000000	0.012431
507.000000	0.012857
506.000000	0.013282
505.000000	0.013738
504.000000	0.014091
503.000000	0.014530
502.000000	0.015042
501.000000	0.016298
500.000000	0.016990
499.000000	0.017062
498.000000	0.017339
497.000000	0.018077
496.000000	0.018592
495.000000	0.019335
494.000000	0.020162
493.000000	0.020921
492.000000	0.021686
491.000000	0.022457
490.000000	0.023264
489.000000	0.024120
488.000000	0.024988
487.000000	0.025947
486.000000	0.026907
485.000000	0.027879
484.000000	0.028903
483.000000	0.029947
482.000000	0.031037
481.000000	0.032208
480.000000	0.033425
479.000000	0.034688
478.000000	0.036024
477.000000	0.037416
476.000000	0.038874
475.000000	0.040386
474.000000	0.041963
473.000000	0.043586
472.000000	0.045258
471.000000	0.046998
470.000000	0.048820
469.000000	0.050730
468.000000	0.052722
467.000000	0.054816
466.000000	0.057007
465.000000	0.059245
464.000000	0.061575
463.000000	0.063977
462.000000	0.066467
461.000000	0.069082
460.000000	0.071800
459.000000	0.074611
458.000000	0.077548
457.000000	0.080578
456.000000	0.083717
455.000000	0.087012
454.000000	0.090374
453.000000	0.093902
452.000000	0.097569
451.000000	0.101375
450.000000	0.105348
449.000000	0.109427
448.000000	0.113658
447.000000	0.118039
446.000000	0.122535
445.000000	0.127150
444.000000	0.131889
443.000000	0.136722
442.000000	0.141692
441.000000	0.146836
440.000000	0.152149
439.000000	0.157637
438.000000	0.163362
437.000000	0.169314
436.000000	0.175411
435.000000	0.181691
434.000000	0.188139
433.000000	0.194713
432.000000	0.201492
431.000000	0.208439
430.000000	0.215561
429.000000	0.222968
428.000000	0.230620
427.000000	0.238595
426.000000	0.246893
425.000000	0.255469
424.000000	0.264347
423.000000	0.273490
422.000000	0.282896
421.000000	0.292514
420.000000	0.302382
419.000000	0.312454
418.000000	0.322752
417.000000	0.333330
416.000000	0.344175
415.000000	0.355371
414.000000	0.366875
413.000000	0.378706
412.000000	0.390866
411.000000	0.403254
410.000000	0.416065
409.000000	0.429141
408.000000	0.442499
407.000000	0.456154
406.000000	0.469911
405.000000	0.483869
404.000000	0.497880
403.000000	0.511789
402.000000	0.539729
401.000000	0.553983
400.000000	0.574211
